XYDATA SparksLave Co3O4-quenched_750_1.5K 
INTER        1       1       0     0.100000
TEMP       1.41930      1.65230      1.50000
! d1b Date 15-Nov-11 Time 22:29:12 Run 130082 130071>130082
! d1b Date 15-Nov-11 Time 22:29:12 Run 130082 130071>130082
! Monitor/counts, Counting time/sec:  1.09617e+007 1.09617e+007
   0.7900             8.000       1.000
   0.8900             5.000       1.000
   0.9900          1707.000      11.662
   1.0900          1698.000      11.225
   1.1900          1725.000      12.450
   1.2900          1615.000      10.198
   1.3900          1742.000      11.874
   1.4900          1807.000      12.530
   1.5900          1871.000      12.450
   1.6900          1854.000      11.619
   1.7900          2396.000      14.866
   1.8900          3776.000      17.436
   1.9900          6391.000      22.869
   2.0900          8772.000      26.344
   2.1900         10814.000      29.189
   2.2900         13890.000      33.526
   2.3900         17499.000      38.704
   2.4900         21278.000      42.154
   2.5900         25200.000      45.552
   2.6900         28864.000      48.384
   2.7900         31971.000      51.293
   2.8900         34682.000      53.638
   2.9900         37455.000      56.347
   3.0900         40183.000      58.138
   3.1900         42767.000      60.025
   3.2900         44336.000      60.787
   3.3900         44852.000      61.245
   3.4900         44413.000      60.374
   3.5900         43838.000      60.208
   3.6900         43772.000      58.805
   3.7900         43106.000      59.363
   3.8900         41910.000      58.310
   3.9900         42305.000      58.907
   4.0900         42284.000      59.506
   4.1900         42026.000      59.279
   4.2900         42379.000      59.641
   4.3900         42591.000      59.666
   4.4900         43441.000      60.100
   4.5900         44698.000      59.615
   4.6900         45970.000      61.205
   4.7900         46624.000      61.806
   4.8900         48128.000      63.008
   4.9900         49298.000      63.906
   5.0900         50703.000      65.689
   5.1900         51459.000      65.727
   5.2900         52901.000      65.719
   5.3900         53749.000      67.179
   5.4900         55193.000      68.264
   5.5900         56775.000      69.289
   5.6900         57326.000      68.059
   5.7900         58056.000      68.578
   5.8900         59902.000      70.470
   5.9900         60704.000      71.239
   6.0900         61341.000      72.636
   6.1900         61579.000      72.056
   6.2900         61353.000      70.803
   6.3900         61047.000      71.365
   6.4900         61189.000      71.603
   6.5900         60691.000      70.675
   6.6900         60298.000      71.764
   6.7900         59960.000      70.314
   6.8900         59619.000      70.278
   6.9900         58762.000      69.663
   7.0900         58370.000      70.071
   7.1900         57367.000      68.782
   7.2900         57432.000      69.800
   7.3900         56730.000      68.608
   7.4900         55903.000      68.717
   7.5900         55169.000      68.125
   7.6900         54297.000      67.067
   7.7900         53193.000      66.348
   7.8900         52638.000      65.567
   7.9900         51872.000      66.015
   8.0900         51009.000      65.008
   8.1900         50423.000      65.552
   8.2900         49650.000      64.792
   8.3900         48643.000      63.984
   8.4900         48291.000      64.195
   8.5900         46874.000      63.380
   8.6900         46639.000      62.522
   8.7900         45799.000      61.498
   8.8900         44577.000      61.303
   8.9900         43803.000      59.917
   9.0900         43294.000      59.950
   9.1900         42583.000      60.033
   9.2900         41518.000      58.643
   9.3900         40788.000      57.888
   9.4900         39950.000      58.284
   9.5900         39224.000      57.000
   9.6900         38130.000      56.763
   9.7900         37844.000      56.098
   9.8900         36767.000      55.606
   9.9900         35580.000      53.926
  10.0900         35234.000      53.991
  10.1900         34238.000      53.870
  10.2900         33816.000      53.104
  10.3900         32972.000      51.846
  10.4900         32308.000      52.000
  10.5900         31665.000      51.536
  10.6900         31322.000      50.725
  10.7900         31036.000      50.695
  10.8900         30611.000      50.902
  10.9900         29923.000      49.598
  11.0900         30081.000      50.150
  11.1900         29864.000      49.910
  11.2900         29574.000      49.528
  11.3900         29300.000      49.163
  11.4900         29698.000      49.578
  11.5900         29688.000      49.173
  11.6900         29759.000      50.507
  11.7900         29586.000      49.315
  11.8900         30052.000      50.020
  11.9900         29604.000      50.190
  12.0900         29590.000      49.315
  12.1900         29671.000      49.790
  12.2900         29397.000      50.398
  12.3900         29324.000      49.376
  12.4900         29355.000      49.508
  12.5900         29500.000      49.396
  12.6900         29506.000      50.636
  12.7900         29656.000      49.598
  12.8900         29527.000      49.820
  12.9900         29604.000      49.649
  13.0900         29396.000      49.487
  13.1900         29781.000      50.931
  13.2900         29424.000      49.143
  13.3900         29527.000      49.598
  13.4900         29179.000      49.659
  13.5900         29496.000      48.672
  13.6900         29702.000      49.890
  13.7900         29289.000      49.376
  13.8900         29437.000      50.000
  13.9900         29575.000      49.447
  14.0900         29391.000      49.880
  14.1900         29565.000      49.132
  14.2900         29363.000      49.010
  14.3900         29623.000      49.325
  14.4900         29260.000      49.518
  14.5900         29494.000      49.548
  14.6900         29563.000      49.244
  14.7900         29324.000      49.386
  14.8900         29170.000      49.699
  14.9900         29527.000      48.652
  15.0900         29489.000      49.800
  15.1900         29948.000      49.820
  15.2900         30475.000      49.619
  15.3900         31651.000      50.823
  15.4900         31787.000      50.030
  15.5900         31124.000      50.804
  15.6900         30143.000      49.970
  15.7900         29496.000      49.860
  15.8900         29388.000      49.183
  15.9900         29506.000      49.548
  16.0900         29596.000      50.110
  16.1900         29597.000      49.163
  16.2900         29480.000      49.639
  16.3900         29793.000      50.329
  16.4900         29363.000      49.275
  16.5900         29432.000      49.719
  16.6900         29486.000      49.041
  16.7900         29236.000      49.244
  16.8900         29471.000      48.229
  16.9900         29522.000      49.649
  17.0900         29526.000      49.346
  17.1900         29435.000      48.847
  17.2900         29293.000      49.010
  17.3900         29494.000      49.769
  17.4900         29865.000      49.840
  17.5900         29523.000      48.229
  17.6900         29930.000      48.980
  17.7900         30534.000      50.190
  17.8900         30975.000      51.029
  17.9900         30722.000      50.210
  18.0900         30628.000      50.379
  18.1900         30094.000      49.538
  18.2900         29565.000      49.558
  18.3900         29689.000      49.800
  18.4900         30120.000      49.790
  18.5900         29637.000      50.180
  18.6900         29750.000      49.325
  18.7900         29682.000      49.810
  18.8900         30073.000      50.010
  18.9900         29926.000      49.538
  19.0900         29812.000      50.160
  19.1900         29872.000      49.548
  19.2900         29741.000      49.729
  19.3900         29535.000      49.406
  19.4900         29939.000      49.437
  19.5900         29413.000      49.020
  19.6900         29826.000      49.467
  19.7900         29863.000      50.170
  19.8900         29908.000      49.427
  19.9900         29665.000      50.220
  20.0900         30067.000      49.325
  20.1900         29703.000      50.388
  20.2900         29502.000      49.366
  20.3900         29896.000      49.447
  20.4900         29919.000      50.428
  20.5900         30405.000      50.498
  20.6900         30420.000      49.548
  20.7900         30433.000      50.050
  20.8900         30172.000      49.315
  20.9900         30327.000      50.398
  21.0900         29869.000      49.810
  21.1900         29882.000      50.329
  21.2900         29989.000      49.860
  21.3900         29986.000      50.537
  21.4900         30242.000      49.699
  21.5900         30144.000      49.820
  21.6900         30162.000      50.299
  21.7900         29943.000      50.359
  21.8900         30007.000      50.220
  21.9900         30213.000      49.102
  22.0900         30078.000      49.830
  22.1900         30215.000      49.749
  22.2900         30156.000      49.739
  22.3900         29899.000      50.229
  22.4900         29907.000      50.379
  22.5900         30254.000      49.890
  22.6900         29958.000      50.150
  22.7900         30358.000      51.166
  22.8900         30103.000      49.769
  22.9900         30219.000      49.497
  23.0900         30051.000      49.709
  23.1900         30304.000      50.259
  23.2900         29945.000      49.396
  23.3900         30286.000      50.329
  23.4900         30507.000      49.528
  23.5900         30353.000      49.619
  23.6900         30468.000      50.951
  23.7900         30324.000      50.675
  23.8900         30853.000      49.669
  23.9900         30658.000      50.130
  24.0900         30476.000      50.646
  24.1900         30424.000      50.379
  24.2900         30188.000      49.538
  24.3900         30182.000      49.699
  24.4900         30179.000      50.725
  24.5900         30450.000      50.259
  24.6900         30051.000      49.619
  24.7900         30486.000      49.749
  24.8900         30560.000      49.568
  24.9900         30412.000      50.150
  25.0900         30783.000      50.577
  25.1900         30518.000      50.239
  25.2900         30555.000      49.920
  25.3900         30714.000      49.265
  25.4900         31196.000      50.289
  25.5900         30784.000      49.619
  25.6900         30835.000      50.448
  25.7900         30539.000      50.774
  25.8900         30396.000      49.840
  25.9900         30615.000      50.922
  26.0900         30387.000      49.649
  26.1900         30574.000      50.160
  26.2900         30679.000      50.080
  26.3900         30348.000      49.860
  26.4900         30965.000      50.675
  26.5900         30679.000      49.608
  26.6900         30652.000      50.458
  26.7900         30752.000      50.140
  26.8900         30541.000      50.951
  26.9900         30993.000      49.980
  27.0900         30753.000      50.656
  27.1900         30473.000      50.100
  27.2900         30820.000      51.215
  27.3900         30831.000      49.820
  27.4900         30744.000      51.807
  27.5900         30970.000      51.371
  27.6900         30833.000      50.120
  27.7900         30914.000      51.098
  27.8900         31009.000      49.960
  27.9900         31064.000      50.279
  28.0900         30695.000      50.922
  28.1900         30968.000      50.813
  28.2900         31084.000      51.069
  28.3900         30774.000      49.840
  28.4900         31201.000      50.418
  28.5900         31182.000      50.438
  28.6900         31093.000      51.672
  28.7900         30933.000      50.478
  28.8900         31012.000      50.408
  28.9900         31041.000      51.010
  29.0900         31032.000      50.279
  29.1900         31497.000      50.160
  29.2900         31266.000      51.000
  29.3900         31113.000      50.892
  29.4900         31365.000      51.420
  29.5900         31220.000      50.675
  29.6900         31702.000      51.410
  29.7900         32010.000      50.735
  29.8900         32759.000      51.788
  29.9900         32979.000      53.526
  30.0900         32928.000      51.740
  30.1900         32126.000      51.196
  30.2900         31964.000      51.527
  30.3900         32113.000      51.971
  30.4900         32528.000      52.288
  30.5900         32542.000      52.839
  30.6900         32979.000      53.479
  30.7900         33714.000      52.877
  30.8900         36371.000      54.351
  30.9900         42593.000      59.766
  31.0900         58886.000      70.534
  31.1900         85155.000      84.333
  31.2900        108860.000      95.687
  31.3900        110791.000      95.885
  31.4900         91428.000      86.741
  31.5900         62826.000      72.139
  31.6900         44282.000      60.992
  31.7900         36341.000      55.127
  31.8900         33912.000      52.688
  31.9900         33045.000      51.865
  32.0900         32388.000      52.240
  32.1900         32267.000      51.595
  32.2900         32036.000      51.672
  32.3900         31790.000      51.971
  32.4900         31748.000      51.624
  32.5900         31746.000      50.843
  32.6900         31623.000      49.990
  32.7900         31470.000      51.371
  32.8900         31603.000      50.140
  32.9900         31461.000      50.695
  33.0900         31600.000      50.666
  33.1900         31712.000      51.817
  33.2900         31140.000      51.186
  33.3900         31299.000      50.507
  33.4900         31392.000      49.568
  33.5900         31289.000      50.823
  33.6900         31528.000      51.430
  33.7900         31525.000      50.941
  33.8900         31487.000      50.971
  33.9900         31561.000      51.614
  34.0900         31748.000      51.536
  34.1900         32276.000      51.595
  34.2900         32449.000      52.173
  34.3900         32094.000      52.134
  34.4900         31973.000      52.326
  34.5900         31637.000      51.303
  34.6900         31725.000      50.863
  34.7900         31638.000      51.633
  34.8900         31207.000      51.439
  34.9900         31395.000      50.458
  35.0900         31642.000      50.990
  35.1900         31325.000      50.695
  35.2900         31322.000      51.371
  35.3900         31741.000      51.039
  35.4900         32049.000      50.636
  35.5900         32137.000      52.048
  35.6900         32167.000      51.254
  35.7900         32955.000      53.376
  35.8900         34064.000      52.858
  35.9900         37279.000      54.544
  36.0900         44595.000      59.724
  36.1900         57084.000      69.036
  36.2900         69810.000      75.697
  36.3900         73789.000      77.324
  36.4900         66712.000      73.858
  36.5900         53381.000      66.925
  36.6900         41895.000      58.506
  36.7900         35949.000      55.109
  36.8900         33018.000      52.096
  36.9900         32593.000      52.086
  37.0900         32242.000      51.361
  37.1900         31973.000      51.894
  37.2900         31715.000      51.264
  37.3900         31954.000      51.536
  37.4900         31135.000      51.517
  37.5900         31872.000      51.400
  37.6900         31063.000      49.880
  37.7900         31521.000      51.711
  37.8900         31378.000      50.200
  37.9900         31155.000      50.379
  38.0900         31333.000      50.685
  38.1900         30884.000      50.735
  38.2900         31057.000      50.210
  38.3900         31088.000      49.970
  38.4900         30865.000      50.448
  38.5900         30854.000      50.596
  38.6900         30603.000      50.567
  38.7900         31165.000      50.961
  38.8900         31211.000      50.823
  38.9900         31013.000      50.596
  39.0900         30889.000      50.744
  39.1900         30835.000      51.059
  39.2900         30745.000      50.882
  39.3900         31033.000      50.784
  39.4900         31272.000      49.990
  39.5900         31421.000      51.069
  39.6900         31677.000      51.078
  39.7900         31551.000      51.468
  39.8900         31873.000      51.807
  39.9900         31548.000      51.653
  40.0900         31009.000      50.319
  40.1900         31212.000      51.585
  40.2900         31512.000      50.249
  40.3900         31078.000      51.264
  40.4900         30968.000      50.872
  40.5900         31205.000      51.381
  40.6900         30995.000      49.790
  40.7900         31244.000      50.080
  40.8900         31387.000      51.420
  40.9900         30948.000      50.418
  41.0900         30880.000      50.695
  41.1900         31009.000      50.448
  41.2900         30762.000      49.214
  41.3900         31164.000      51.147
  41.4900         30976.000      50.941
  41.5900         30881.000      50.695
  41.6900         30784.000      50.349
  41.7900         31052.000      50.872
  41.8900         30585.000      50.498
  41.9900         30572.000      50.010
  42.0900         30478.000      49.366
  42.1900         30794.000      49.850
  42.2900         30769.000      50.744
  42.3900         30781.000      50.626
  42.4900         30326.000      49.020
  42.5900         30461.000      50.220
  42.6900         30519.000      49.709
  42.7900         30626.000      49.659
  42.8900         30589.000      50.220
  42.9900         30549.000      51.069
  43.0900         30611.000      50.804
  43.1900         30501.000      49.041
  43.2900         30913.000      50.408
  43.3900         30512.000      49.588
  43.4900         30893.000      51.342
  43.5900         31150.000      50.408
  43.6900         30739.000      51.215
  43.7900         30834.000      49.820
  43.8900         30884.000      50.882
  43.9900         30703.000      50.587
  44.0900         30675.000      50.488
  44.1900         30584.000      50.488
  44.2900         30850.000      49.659
  44.3900         30770.000      49.598
  44.4900         30726.000      49.649
  44.5900         30890.000      50.813
  44.6900         31055.000      51.371
  44.7900         30406.000      49.588
  44.8900         30857.000      50.823
  44.9900         30931.000      50.941
  45.0900         31068.000      50.725
  45.1900         30921.000      51.400
  45.2900         30483.000      49.528
  45.3900         30504.000      49.870
  45.4900         30930.000      51.020
  45.5900         30506.000      49.880
  45.6900         30655.000      50.090
  45.7900         30843.000      51.245
  45.8900         30575.000      49.467
  45.9900         30544.000      49.669
  46.0900         30513.000      49.930
  46.1900         30705.000      49.538
  46.2900         30511.000      50.070
  46.3900         30570.000      49.457
  46.4900         30624.000      49.820
  46.5900         30450.000      50.020
  46.6900         30499.000      49.729
  46.7900         30617.000      49.920
  46.8900         30737.000      50.428
  46.9900         30663.000      50.458
  47.0900         31151.000      50.675
  47.1900         30655.000      50.120
  47.2900         30883.000      50.863
  47.3900         30825.000      50.170
  47.4900         30716.000      50.715
  47.5900         31507.000      51.137
  47.6900         32671.000      52.029
  47.7900         34124.000      53.141
  47.8900         34257.000      53.009
  47.9900         33597.000      52.802
  48.0900         32035.000      51.342
  48.1900         31207.000      50.892
  48.2900         31056.000      51.332
  48.3900         30545.000      50.646
  48.4900         30831.000      51.029
  48.5900         30740.000      50.557
