XYDATA SparksLave Co3O4-quenched_750_300K 
INTER        1       1       0     0.100000
TEMP       297.099      296.162      300.000
! d1b Date 15-Nov-11 Time 19:10:27 Run 130070 130059>130070
! d1b Date 15-Nov-11 Time 19:10:27 Run 130070 130059>130070
! Monitor/counts, Counting time/sec:  1.09407e+007 1.09407e+007
   0.7900             5.000       1.000
   0.8900             3.000       1.000
   0.9900          1731.000      11.705
   1.0900          1739.000      11.790
   1.1900          1656.000      11.958
   1.2900          1665.000      11.790
   1.3900          1785.000      11.446
   1.4900          1822.000      12.806
   1.5900          1788.000      12.247
   1.6900          1912.000      11.136
   1.7900          2524.000      14.318
   1.8900          3920.000      17.550
   1.9900          6463.000      22.539
   2.0900          8764.000      26.889
   2.1900         10944.000      29.614
   2.2900         14064.000      33.675
   2.3900         17543.000      38.236
   2.4900         21462.000      42.048
   2.5900         24942.000      45.166
   2.6900         28974.000      49.295
   2.7900         31660.000      50.951
   2.8900         34610.000      54.608
   2.9900         37451.000      55.516
   3.0900         40375.000      57.879
   3.1900         42917.000      59.682
   3.2900         44366.000      61.498
   3.3900         44855.000      60.357
   3.4900         44454.000      60.490
   3.5900         44187.000      59.431
   3.6900         43111.000      60.100
   3.7900         42723.000      59.254
   3.8900         42012.000      58.498
   3.9900         42485.000      59.473
   4.0900         42553.000      58.788
   4.1900         42289.000      59.068
   4.2900         42681.000      60.033
   4.3900         43108.000      60.050
   4.4900         44220.000      60.299
   4.5900         44745.000      61.074
   4.6900         46285.000      61.579
   4.7900         47995.000      61.895
   4.8900         49226.000      63.655
   4.9900         50544.000      63.616
   5.0900         52370.000      66.340
   5.1900         54003.000      67.060
   5.2900         55006.000      67.949
   5.3900         56628.000      68.884
   5.4900         57825.000      68.264
   5.5900         59760.000      70.342
   5.6900         60789.000      71.035
   5.7900         62064.000      71.141
   5.8900         63302.000      72.111
   5.9900         65545.000      73.865
   6.0900         65080.000      73.376
   6.1900         65366.000      74.061
   6.2900         65650.000      74.458
   6.3900         65397.000      73.007
   6.4900         65486.000      73.600
   6.5900         64101.000      72.986
   6.6900         63772.000      73.000
   6.7900         64126.000      73.157
   6.8900         62868.000      72.925
   6.9900         63008.000      72.360
   7.0900         62770.000      73.437
   7.1900         61753.000      72.021
   7.2900         61642.000      71.889
   7.3900         59887.000      70.852
   7.4900         59733.000      71.211
   7.5900         58865.000      69.900
   7.6900         57974.000      70.128
   7.7900         57493.000      68.986
   7.8900         56388.000      68.345
   7.9900         55833.000      69.094
   8.0900         55163.000      68.724
   8.1900         53925.000      67.446
   8.2900         53335.000      67.224
   8.3900         52486.000      66.242
   8.4900         51877.000      65.391
   8.5900         50903.000      65.536
   8.6900         50124.000      65.192
   8.7900         49062.000      64.039
   8.8900         48302.000      63.632
   8.9900         47615.000      62.530
   9.0900         47092.000      62.394
   9.1900         46221.000      62.746
   9.2900         45353.000      61.717
   9.3900         44995.000      61.798
   9.4900         43464.000      60.274
   9.5900         43095.000      59.624
   9.6900         41633.000      59.085
   9.7900         41543.000      58.455
   9.8900         40090.000      57.853
   9.9900         39635.000      57.862
  10.0900         38733.000      57.201
  10.1900         37842.000      56.489
  10.2900         37458.000      55.731
  10.3900         36227.000      55.290
  10.4900         36118.000      55.036
  10.5900         35052.000      53.413
  10.6900         35011.000      54.580
  10.7900         34111.000      53.703
  10.8900         34057.000      52.991
  10.9900         33387.000      53.104
  11.0900         33757.000      53.675
  11.1900         33122.000      52.163
  11.2900         32987.000      53.075
  11.3900         32907.000      51.962
  11.4900         33150.000      53.367
  11.5900         32907.000      52.507
  11.6900         33185.000      52.393
  11.7900         32853.000      52.269
  11.8900         32795.000      51.846
  11.9900         32938.000      52.915
  12.0900         32979.000      52.345
  12.1900         33281.000      52.981
  12.2900         33028.000      52.574
  12.3900         32994.000      53.554
  12.4900         32720.000      52.830
  12.5900         32637.000      52.650
  12.6900         33081.000      52.374
  12.7900         32438.000      52.163
  12.8900         32515.000      52.010
  12.9900         32690.000      53.132
  13.0900         32528.000      52.716
  13.1900         32664.000      52.259
  13.2900         32330.000      53.367
  13.3900         32841.000      52.783
  13.4900         32442.000      51.894
  13.5900         32311.000      51.720
  13.6900         32455.000      52.431
  13.7900         32549.000      52.498
  13.8900         32733.000      52.583
  13.9900         32757.000      52.612
  14.0900         32516.000      53.526
  14.1900         32797.000      53.235
  14.2900         32851.000      53.028
  14.3900         32444.000      52.783
  14.4900         32544.000      53.310
  14.5900         32827.000      53.339
  14.6900         32373.000      52.134
  14.7900         32722.000      52.593
  14.8900         32806.000      52.374
  14.9900         32669.000      53.038
  15.0900         32682.000      52.249
  15.1900         32693.000      53.207
  15.2900         32999.000      53.047
  15.3900         33572.000      53.442
  15.4900         33921.000      54.617
  15.5900         33516.000      53.395
  15.6900         32801.000      52.593
  15.7900         32624.000      52.536
  15.8900         32452.000      52.230
  15.9900         32419.000      52.374
  16.0900         32913.000      52.726
  16.1900         32345.000      51.556
  16.2900         32677.000      52.792
  16.3900         32548.000      52.640
  16.4900         32581.000      52.058
  16.5900         32693.000      52.868
  16.6900         32870.000      52.134
  16.7900         33156.000      52.820
  16.8900         32475.000      51.624
  16.9900         32136.000      52.574
  17.0900         32546.000      51.691
  17.1900         32643.000      52.906
  17.2900         32625.000      51.498
  17.3900         32512.000      51.643
  17.4900         32797.000      52.316
  17.5900         32908.000      52.526
  17.6900         32794.000      52.716
  17.7900         32512.000      52.154
  17.8900         33311.000      53.207
  17.9900         33164.000      52.517
  18.0900         32677.000      52.868
  18.1900         32671.000      52.962
  18.2900         32619.000      52.555
  18.3900         32932.000      52.412
  18.4900         32841.000      52.697
  18.5900         32751.000      53.019
  18.6900         32843.000      51.952
  18.7900         32798.000      52.431
  18.8900         32705.000      53.367
  18.9900         32611.000      52.906
  19.0900         32624.000      52.858
  19.1900         32589.000      52.469
  19.2900         32696.000      51.759
  19.3900         32404.000      52.067
  19.4900         32791.000      52.887
  19.5900         32706.000      52.335
  19.6900         32630.000      51.962
  19.7900         32582.000      53.722
  19.8900         32734.000      51.875
  19.9900         32880.000      53.057
  20.0900         32957.000      53.282
  20.1900         32818.000      52.307
  20.2900         32596.000      51.962
  20.3900         32680.000      51.459
  20.4900         32840.000      52.096
  20.5900         33356.000      53.104
  20.6900         32968.000      52.745
  20.7900         32924.000      52.106
  20.8900         32891.000      52.688
  20.9900         33049.000      52.735
  21.0900         32776.000      52.887
  21.1900         33041.000      53.907
  21.2900         32872.000      52.877
  21.3900         32776.000      52.144
  21.4900         32808.000      52.858
  21.5900         32642.000      52.440
  21.6900         32867.000      52.650
  21.7900         32973.000      53.075
  21.8900         32731.000      52.469
  21.9900         32805.000      52.783
  22.0900         32512.000      52.488
  22.1900         32613.000      52.849
  22.2900         32684.000      52.887
  22.3900         32768.000      52.029
  22.4900         32506.000      51.788
  22.5900         32778.000      52.307
  22.6900         32829.000      52.981
  22.7900         32781.000      52.297
  22.8900         32451.000      51.604
  22.9900         32831.000      53.647
  23.0900         32596.000      52.564
  23.1900         32474.000      51.565
  23.2900         32814.000      53.684
  23.3900         32967.000      52.402
  23.4900         32572.000      52.154
  23.5900         32922.000      52.943
  23.6900         32844.000      52.421
  23.7900         32968.000      52.868
  23.8900         32851.000      53.423
  23.9900         33374.000      53.712
  24.0900         32873.000      52.249
  24.1900         32941.000      52.754
  24.2900         32956.000      52.460
  24.3900         32741.000      53.348
  24.4900         32579.000      52.915
  24.5900         33027.000      52.783
  24.6900         32585.000      52.488
  24.7900         32549.000      51.682
  24.8900         33111.000      52.612
  24.9900         32933.000      53.320
  25.0900         32918.000      53.563
  25.1900         32812.000      52.000
  25.2900         33224.000      52.830
  25.3900         33529.000      53.113
  25.4900         33597.000      53.329
  25.5900         33348.000      53.329
  25.6900         33088.000      52.858
  25.7900         32625.000      52.906
  25.8900         32987.000      52.745
  25.9900         33159.000      52.887
  26.0900         33270.000      52.077
  26.1900         32827.000      51.614
  26.2900         33115.000      52.659
  26.3900         32886.000      52.526
  26.4900         33282.000      52.792
  26.5900         32965.000      51.904
  26.6900         32893.000      52.962
  26.7900         33046.000      52.896
  26.8900         32978.000      52.488
  26.9900         33125.000      52.345
  27.0900         32582.000      51.846
  27.1900         32878.000      53.160
  27.2900         33071.000      52.326
  27.3900         33151.000      53.787
  27.4900         32907.000      53.170
  27.5900         32474.000      51.827
  27.6900         32968.000      52.811
  27.7900         32889.000      52.659
  27.8900         33007.000      52.678
  27.9900         32632.000      51.749
  28.0900         32873.000      52.402
  28.1900         32802.000      52.211
  28.2900         33301.000      53.292
  28.3900         32986.000      51.894
  28.4900         32717.000      52.564
  28.5900         33321.000      52.631
  28.6900         33165.000      53.507
  28.7900         32992.000      53.028
  28.8900         32957.000      51.498
  28.9900         33108.000      52.259
  29.0900         33427.000      53.432
  29.1900         33250.000      52.488
  29.2900         32610.000      51.836
  29.3900         33015.000      52.574
  29.4900         33255.000      53.544
  29.5900         32872.000      52.764
  29.6900         33763.000      53.619
  29.7900         33383.000      53.141
  29.8900         33983.000      53.582
  29.9900         33898.000      54.157
  30.0900         33797.000      52.574
  30.1900         33486.000      53.263
  30.2900         33232.000      52.802
  30.3900         33248.000      53.367
  30.4900         33660.000      53.357
  30.5900         33383.000      53.516
  30.6900         33906.000      53.348
  30.7900         34146.000      53.814
  30.8900         35199.000      54.982
  30.9900         39472.000      58.207
  31.0900         49789.000      65.582
  31.1900         64985.000      74.960
  31.2900         76581.000      81.265
  31.3900         74836.000      78.956
  31.4900         60949.000      71.267
  31.5900         45845.000      61.384
  31.6900         37703.000      56.391
  31.7900         34323.000      54.727
  31.8900         33700.000      53.207
  31.9900         33687.000      52.830
  32.0900         33440.000      52.773
  32.1900         33332.000      53.339
  32.2900         33636.000      53.339
  32.3900         33266.000      52.754
  32.4900         32984.000      52.230
  32.5900         32836.000      53.254
  32.6900         33079.000      53.348
  32.7900         33154.000      53.226
  32.8900         32958.000      51.865
  32.9900         32964.000      52.326
  33.0900         33114.000      53.217
  33.1900         32710.000      52.688
  33.2900         32876.000      52.716
  33.3900         33202.000      53.123
  33.4900         33168.000      52.593
  33.5900         32984.000      52.507
  33.6900         33128.000      52.792
  33.7900         32838.000      52.154
  33.8900         33327.000      52.230
  33.9900         33378.000      52.915
  34.0900         33638.000      53.085
  34.1900         34091.000      53.861
  34.2900         33970.000      53.759
  34.3900         33494.000      53.395
  34.4900         33230.000      52.488
  34.5900         33156.000      52.688
  34.6900         33182.000      52.896
  34.7900         33347.000      52.716
  34.8900         32944.000      52.507
  34.9900         32701.000      52.726
  35.0900         32906.000      53.066
  35.1900         32660.000      52.115
  35.2900         33242.000      53.339
  35.3900         32994.000      53.047
  35.4900         33211.000      52.726
  35.5900         32942.000      52.498
  35.6900         32784.000      52.868
  35.7900         33017.000      52.887
  35.8900         33051.000      52.038
  35.9900         33114.000      52.972
  36.0900         33941.000      52.953
  36.1900         37022.000      55.884
  36.2900         39885.000      58.060
  36.3900         40447.000      57.749
  36.4900         37358.000      56.143
  36.5900         34520.000      53.981
  36.6900         32895.000      52.555
  36.7900         32923.000      52.659
  36.8900         32832.000      51.807
  36.9900         32787.000      51.923
  37.0900         32875.000      53.104
  37.1900         32663.000      52.479
  37.2900         32868.000      53.057
  37.3900         32614.000      52.877
  37.4900         32549.000      52.134
  37.5900         32719.000      51.962
  37.6900         32341.000      53.066
  37.7900         32703.000      53.712
  37.8900         32573.000      52.431
  37.9900         32447.000      52.038
  38.0900         32540.000      52.460
  38.1900         32424.000      52.125
  38.2900         32447.000      52.498
  38.3900         32485.000      52.593
  38.4900         32688.000      52.735
  38.5900         32806.000      52.612
  38.6900         32764.000      53.085
  38.7900         32390.000      52.877
  38.8900         32312.000      51.904
  38.9900         32073.000      52.096
  39.0900         32503.000      52.154
  39.1900         32312.000      52.278
  39.2900         32472.000      52.355
  39.3900         32365.000      51.701
  39.4900         32904.000      52.745
  39.5900         32786.000      52.773
  39.6900         33106.000      52.707
  39.7900         33197.000      52.811
  39.8900         32362.000      51.313
  39.9900         32558.000      52.134
  40.0900         32640.000      52.688
  40.1900         32679.000      52.412
  40.2900         32627.000      52.202
  40.3900         32795.000      52.802
  40.4900         32759.000      52.316
  40.5900         32524.000      52.583
  40.6900         32357.000      52.583
  40.7900         32439.000      52.278
  40.8900         32357.000      52.953
  40.9900         32568.000      52.593
  41.0900         32356.000      52.820
  41.1900         32010.000      51.157
  41.2900         32372.000      51.962
  41.3900         32301.000      52.202
  41.4900         32544.000      52.745
  41.5900         32103.000      51.971
  41.6900         32191.000      52.612
  41.7900         32289.000      52.383
  41.8900         32031.000      51.875
  41.9900         32496.000      51.313
  42.0900         32501.000      51.971
  42.1900         32237.000      52.345
  42.2900         32746.000      52.192
  42.3900         32304.000      52.555
  42.4900         32328.000      51.468
  42.5900         32480.000      51.846
  42.6900         32536.000      52.868
  42.7900         32284.000      52.716
  42.8900         32164.000      52.221
  42.9900         32396.000      51.981
  43.0900         32279.000      51.293
  43.1900         32229.000      52.326
  43.2900         32150.000      52.326
  43.3900         31979.000      52.173
  43.4900         32410.000      52.469
  43.5900         32629.000      52.297
  43.6900         32406.000      53.376
  43.7900         32281.000      51.147
  43.8900         32548.000      52.621
  43.9900         32473.000      52.355
  44.0900         32432.000      53.085
  44.1900         32354.000      52.536
  44.2900         32396.000      52.182
  44.3900         32524.000      52.182
  44.4900         32576.000      52.498
  44.5900         32491.000      51.672
  44.6900         32346.000      51.691
  44.7900         32289.000      52.134
  44.8900         32246.000      52.278
  44.9900         32269.000      52.134
  45.0900         32304.000      51.913
  45.1900         32449.000      52.192
  45.2900         32153.000      52.316
  45.3900         32180.000      51.420
  45.4900         32263.000      51.536
  45.5900         32506.000      52.469
  45.6900         32255.000      51.585
  45.7900         32256.000      51.595
  45.8900         32132.000      52.144
  45.9900         32378.000      52.688
  46.0900         32211.000      52.288
  46.1900         32032.000      51.546
  46.2900         32169.000      52.688
  46.3900         32373.000      52.574
  46.4900         32257.000      51.517
  46.5900         32230.000      51.624
  46.6900         32373.000      52.412
  46.7900         32250.000      51.420
  46.8900         32142.000      51.952
  46.9900         32380.000      52.460
  47.0900         32222.000      51.749
  47.1900         32527.000      52.202
  47.2900         32528.000      51.990
  47.3900         32160.000      51.556
  47.4900         32259.000      51.952
  47.5900         33187.000      52.545
  47.6900         34857.000      54.635
  47.7900         35602.000      53.731
  47.8900         35538.000      55.045
  47.9900         34329.000      53.787
  48.0900         33078.000      52.802
  48.1900         32313.000      52.849
  48.2900         32618.000      51.990
  48.3900         32525.000      51.856
  48.4900         32545.000      52.249
  48.5900         32583.000      53.217
