XYDATA SparksLave Co3O4-quenched_800_300K 
INTER        1       1       0     0.100000
TEMP       298.338      300.007      300.000
! d1b Date 16-Nov-11 Time 08:17:22 Run 130118 130107>130118
! d1b Date 16-Nov-11 Time 08:17:22 Run 130118 130107>130118
! Monitor/counts, Counting time/sec:  1.07182e+007 1.07182e+007
   0.7900             5.000       1.000
   0.8900             4.000       1.000
   0.9900          1889.000      11.916
   1.0900          1751.000      11.832
   1.1900          1821.000      13.153
   1.2900          1797.000      12.042
   1.3900          1741.000      12.923
   1.4900          1815.000      12.083
   1.5900          1913.000      12.000
   1.6900          1949.000      13.229
   1.7900          2520.000      14.353
   1.8900          3929.000      18.193
   1.9900          6492.000      22.561
   2.0900          8768.000      26.739
   2.1900         11084.000      29.223
   2.2900         14082.000      33.571
   2.3900         17478.000      38.393
   2.4900         21667.000      41.437
   2.5900         25156.000      44.788
   2.6900         28912.000      48.042
   2.7900         32162.000      51.332
   2.8900         34635.000      52.507
   2.9900         37470.000      54.909
   3.0900         40421.000      56.815
   3.1900         43416.000      60.083
   3.2900         44978.000      60.597
   3.3900         45535.000      61.294
   3.4900         44344.000      60.564
   3.5900         43981.000      59.775
   3.6900         43348.000      59.708
   3.7900         42933.000      59.059
   3.8900         42094.000      58.164
   3.9900         42538.000      59.758
   4.0900         42332.000      59.464
   4.1900         42339.000      59.464
   4.2900         42713.000      59.925
   4.3900         42649.000      59.051
   4.4900         43439.000      60.058
   4.5900         44731.000      60.498
   4.6900         46535.000      62.274
   4.7900         47491.000      62.466
   4.8900         49288.000      63.679
   4.9900         50241.000      64.452
   5.0900         52020.000      65.574
   5.1900         53769.000      66.791
   5.2900         55167.000      68.345
   5.3900         56866.000      68.469
   5.4900         57557.000      69.275
   5.5900         59725.000      70.824
   5.6900         60908.000      70.986
   5.7900         61789.000      71.526
   5.8900         64299.000      73.048
   5.9900         64814.000      73.321
   6.0900         65972.000      73.865
   6.1900         65927.000      74.095
   6.2900         65831.000      74.579
   6.3900         65913.000      74.223
   6.4900         66071.000      74.552
   6.5900         65602.000      74.900
   6.6900         64496.000      73.383
   6.7900         64885.000      73.743
   6.8900         64041.000      73.573
   6.9900         63513.000      73.151
   7.0900         62930.000      72.312
   7.1900         62242.000      71.896
   7.2900         62077.000      71.379
   7.3900         61562.000      71.910
   7.4900         60524.000      70.689
   7.5900         60315.000      70.838
   7.6900         58665.000      70.732
   7.7900         58247.000      70.050
   7.8900         56929.000      69.051
   7.9900         56678.000      69.318
   8.0900         55882.000      68.600
   8.1900         55084.000      68.096
   8.2900         54738.000      67.809
   8.3900         53498.000      66.038
   8.4900         52854.000      65.635
   8.5900         51572.000      66.151
   8.6900         51296.000      66.197
   8.7900         49973.000      65.154
   8.8900         49581.000      64.335
   8.9900         48813.000      63.600
   9.0900         48170.000      64.062
   9.1900         47232.000      63.111
   9.2900         46482.000      62.889
   9.3900         45690.000      61.652
   9.4900         44778.000      61.668
   9.5900         44095.000      62.056
   9.6900         42694.000      60.382
   9.7900         42336.000      60.075
   9.8900         41108.000      58.215
   9.9900         40558.000      57.810
  10.0900         39691.000      57.853
  10.1900         39078.000      58.121
  10.2900         38007.000      56.947
  10.3900         37346.000      55.597
  10.4900         37005.000      55.678
  10.5900         36466.000      55.399
  10.6900         35497.000      54.544
  10.7900         35802.000      55.236
  10.8900         35185.000      54.185
  10.9900         34303.000      53.805
  11.0900         34544.000      53.301
  11.1900         33960.000      52.906
  11.2900         33987.000      53.582
  11.3900         34560.000      54.019
  11.4900         33571.000      52.745
  11.5900         34623.000      54.046
  11.6900         34246.000      53.217
  11.7900         34213.000      52.839
  11.8900         34080.000      53.104
  11.9900         34011.000      52.507
  12.0900         33943.000      53.348
  12.1900         33913.000      52.316
  12.2900         33576.000      52.773
  12.3900         34216.000      53.085
  12.4900         33971.000      53.628
  12.5900         33874.000      52.849
  12.6900         34024.000      53.047
  12.7900         34064.000      53.085
  12.8900         33993.000      52.962
  12.9900         33878.000      52.896
  13.0900         34063.000      53.516
  13.1900         33860.000      52.355
  13.2900         33929.000      52.858
  13.3900         33185.000      52.802
  13.4900         33577.000      52.754
  13.5900         33580.000      53.245
  13.6900         33602.000      52.678
  13.7900         33664.000      53.712
  13.8900         33621.000      52.602
  13.9900         33619.000      52.811
  14.0900         33411.000      52.163
  14.1900         33556.000      51.962
  14.2900         33859.000      52.335
  14.3900         33500.000      53.619
  14.4900         33570.000      53.226
  14.5900         33681.000      52.839
  14.6900         33849.000      52.640
  14.7900         33589.000      52.545
  14.8900         33267.000      52.564
  14.9900         33878.000      53.442
  15.0900         33608.000      53.432
  15.1900         33982.000      53.329
  15.2900         34527.000      53.712
  15.3900         35058.000      53.879
  15.4900         34866.000      54.516
  15.5900         34316.000      52.877
  15.6900         34090.000      53.179
  15.7900         33453.000      52.412
  15.8900         33310.000      52.602
  15.9900         34111.000      52.896
  16.0900         33273.000      52.962
  16.1900         33770.000      52.564
  16.2900         33630.000      52.991
  16.3900         33403.000      52.421
  16.4900         33439.000      52.745
  16.5900         33291.000      53.879
  16.6900         33416.000      52.048
  16.7900         34049.000      53.282
  16.8900         33205.000      52.488
  16.9900         33719.000      53.057
  17.0900         33748.000      53.000
  17.1900         33428.000      52.726
  17.2900         33823.000      52.621
  17.3900         33163.000      52.858
  17.4900         33802.000      53.235
  17.5900         33652.000      52.574
  17.6900         33808.000      53.217
  17.7900         33859.000      53.610
  17.8900         33771.000      53.768
  17.9900         33865.000      53.038
  18.0900         33804.000      52.972
  18.1900         33590.000      52.564
  18.2900         33880.000      52.924
  18.3900         33578.000      52.421
  18.4900         33821.000      53.423
  18.5900         33739.000      52.431
  18.6900         33791.000      52.745
  18.7900         33513.000      53.226
  18.8900         33585.000      52.488
  18.9900         34099.000      53.235
  19.0900         33590.000      53.113
  19.1900         33449.000      52.697
  19.2900         34179.000      53.160
  19.3900         33625.000      53.507
  19.4900         33749.000      53.451
  19.5900         33397.000      53.544
  19.6900         33569.000      53.376
  19.7900         33994.000      53.376
  19.8900         33999.000      53.094
  19.9900         33774.000      53.395
  20.0900         33485.000      52.182
  20.1900         33523.000      52.678
  20.2900         33967.000      53.075
  20.3900         33696.000      53.094
  20.4900         33486.000      52.125
  20.5900         34208.000      53.320
  20.6900         34316.000      52.953
  20.7900         33777.000      52.650
  20.8900         34047.000      53.610
  20.9900         33599.000      52.602
  21.0900         33638.000      53.954
  21.1900         34099.000      53.488
  21.2900         33934.000      53.075
  21.3900         33880.000      54.240
  21.4900         33725.000      52.345
  21.5900         33703.000      52.764
  21.6900         33658.000      53.273
  21.7900         33695.000      53.488
  21.8900         33601.000      53.535
  21.9900         33752.000      52.802
  22.0900         33727.000      52.555
  22.1900         33993.000      53.038
  22.2900         33451.000      52.887
  22.3900         33409.000      52.726
  22.4900         33601.000      53.235
  22.5900         33513.000      52.412
  22.6900         33600.000      53.207
  22.7900         33712.000      52.707
  22.8900         33777.000      53.600
  22.9900         33817.000      53.329
  23.0900         33902.000      53.451
  23.1900         33724.000      52.659
  23.2900         33905.000      52.754
  23.3900         34005.000      52.924
  23.4900         33546.000      52.269
  23.5900         33746.000      52.868
  23.6900         33889.000      54.009
  23.7900         34031.000      52.134
  23.8900         34579.000      53.814
  23.9900         34259.000      52.374
  24.0900         34056.000      53.217
  24.1900         33759.000      53.009
  24.2900         33392.000      52.820
  24.3900         33537.000      52.240
  24.4900         33722.000      53.047
  24.5900         34082.000      53.395
  24.6900         33445.000      52.269
  24.7900         33512.000      53.188
  24.8900         33954.000      53.207
  24.9900         33904.000      53.796
  25.0900         33483.000      53.170
  25.1900         33945.000      53.879
  25.2900         33984.000      52.498
  25.3900         34356.000      54.074
  25.4900         34542.000      52.849
  25.5900         34081.000      52.981
  25.6900         34404.000      53.057
  25.7900         33507.000      53.339
  25.8900         33910.000      53.423
  25.9900         33649.000      53.235
  26.0900         33693.000      52.877
  26.1900         34215.000      52.962
  26.2900         33767.000      52.355
  26.3900         33797.000      52.507
  26.4900         33586.000      52.659
  26.5900         33941.000      52.659
  26.6900         33791.000      53.113
  26.7900         34029.000      53.722
  26.8900         33690.000      52.517
  26.9900         33567.000      52.640
  27.0900         33837.000      52.915
  27.1900         33822.000      52.962
  27.2900         33947.000      53.526
  27.3900         34056.000      52.688
  27.4900         34151.000      53.094
  27.5900         33637.000      52.896
  27.6900         33688.000      52.221
  27.7900         33742.000      53.170
  27.8900         33997.000      52.669
  27.9900         34067.000      53.038
  28.0900         33874.000      53.179
  28.1900         33958.000      52.915
  28.2900         33674.000      54.065
  28.3900         34181.000      52.887
  28.4900         33743.000      53.610
  28.5900         33881.000      52.915
  28.6900         33804.000      53.292
  28.7900         33971.000      53.842
  28.8900         34057.000      53.009
  28.9900         34078.000      53.282
  29.0900         34074.000      53.104
  29.1900         34101.000      54.323
  29.2900         34168.000      53.207
  29.3900         33975.000      52.564
  29.4900         34019.000      52.583
  29.5900         33969.000      52.536
  29.6900         33799.000      52.953
  29.7900         34629.000      54.314
  29.8900         34642.000      54.120
  29.9900         34804.000      53.188
  30.0900         35115.000      55.045
  30.1900         34428.000      54.185
  30.2900         34574.000      53.610
  30.3900         34059.000      53.292
  30.4900         34395.000      53.395
  30.5900         34690.000      52.896
  30.6900         34640.000      53.879
  30.7900         35042.000      54.102
  30.8900         36235.000      54.589
  30.9900         40949.000      58.361
  31.0900         53688.000      66.596
  31.1900         71717.000      77.246
  31.2900         85473.000      84.333
  31.3900         83033.000      82.632
  31.4900         65022.000      73.566
  31.5900         47322.000      62.586
  31.6900         38356.000      57.541
  31.7900         35546.000      53.889
  31.8900         34769.000      53.591
  31.9900         34544.000      53.944
  32.0900         34616.000      53.348
  32.1900         34232.000      53.188
  32.2900         34125.000      52.678
  32.3900         34084.000      52.915
  32.4900         33946.000      53.132
  32.5900         33994.000      52.316
  32.6900         33751.000      52.364
  32.7900         34191.000      53.348
  32.8900         33992.000      51.990
  32.9900         34339.000      54.268
  33.0900         33902.000      53.638
  33.1900         34240.000      53.582
  33.2900         33854.000      52.431
  33.3900         34152.000      53.348
  33.4900         33927.000      53.507
  33.5900         34214.000      52.316
  33.6900         33824.000      52.943
  33.7900         34247.000      52.962
  33.8900         34033.000      53.170
  33.9900         34020.000      54.176
  34.0900         34770.000      53.488
  34.1900         35102.000      53.870
  34.2900         34748.000      53.320
  34.3900         34300.000      53.777
  34.4900         34103.000      53.395
  34.5900         33853.000      52.943
  34.6900         34326.000      53.796
  34.7900         33800.000      52.858
  34.8900         33885.000      53.123
  34.9900         33881.000      52.650
  35.0900         33840.000      53.226
  35.1900         33486.000      53.301
  35.2900         33786.000      53.423
  35.3900         33477.000      53.254
  35.4900         33952.000      52.431
  35.5900         33937.000      52.402
  35.6900         34047.000      52.297
  35.7900         33577.000      52.631
  35.8900         33854.000      53.301
  35.9900         33862.000      53.479
  36.0900         35497.000      54.139
  36.1900         38487.000      55.973
  36.2900         42593.000      59.749
  36.3900         42548.000      59.908
  36.4900         38666.000      56.947
  36.5900         35607.000      54.580
  36.6900         34011.000      53.666
  36.7900         33775.000      53.066
  36.8900         33558.000      52.602
  36.9900         33713.000      52.783
  37.0900         33623.000      52.839
  37.1900         33709.000      53.600
  37.2900         33741.000      52.173
  37.3900         33746.000      52.640
  37.4900         33529.000      52.962
  37.5900         33617.000      52.612
  37.6900         33199.000      52.839
  37.7900         33432.000      52.678
  37.8900         33364.000      52.450
  37.9900         33238.000      52.707
  38.0900         33692.000      52.316
  38.1900         33668.000      53.395
  38.2900         33546.000      53.132
  38.3900         33323.000      52.669
  38.4900         33598.000      53.488
  38.5900         33298.000      53.179
  38.6900         33752.000      53.376
  38.7900         33612.000      52.555
  38.8900         33385.000      51.952
  38.9900         33431.000      53.217
  39.0900         33332.000      53.019
  39.1900         33189.000      52.125
  39.2900         33145.000      52.678
  39.3900         33479.000      53.526
  39.4900         33595.000      53.188
  39.5900         33828.000      53.151
  39.6900         34204.000      53.376
  39.7900         34089.000      52.754
  39.8900         33751.000      53.094
  39.9900         33891.000      52.621
  40.0900         33530.000      52.659
  40.1900         33663.000      52.707
  40.2900         33922.000      53.451
  40.3900         33811.000      53.647
  40.4900         33722.000      52.707
  40.5900         33102.000      52.962
  40.6900         33247.000      52.067
  40.7900         33334.000      52.792
  40.8900         32919.000      52.307
  40.9900         33524.000      52.962
  41.0900         33584.000      53.647
  41.1900         33408.000      51.962
  41.2900         33583.000      52.906
  41.3900         33162.000      52.669
  41.4900         33173.000      52.479
  41.5900         33198.000      51.827
  41.6900         33333.000      53.498
  41.7900         33261.000      52.545
  41.8900         33093.000      52.802
  41.9900         32945.000      52.450
  42.0900         33168.000      52.431
  42.1900         33364.000      52.868
  42.2900         33152.000      52.269
  42.3900         33173.000      53.544
  42.4900         33220.000      53.151
  42.5900         32934.000      52.517
  42.6900         33063.000      52.288
  42.7900         33145.000      52.962
  42.8900         33092.000      52.460
  42.9900         33129.000      52.240
  43.0900         33297.000      53.104
  43.1900         33024.000      52.383
  43.2900         33259.000      53.516
  43.3900         33440.000      52.507
  43.4900         33116.000      52.096
  43.5900         33277.000      51.749
  43.6900         32892.000      52.335
  43.7900         32936.000      51.614
  43.8900         32950.000      51.894
  43.9900         33292.000      52.307
  44.0900         32876.000      52.526
  44.1900         33286.000      52.811
  44.2900         33361.000      52.783
  44.3900         33218.000      53.057
  44.4900         33097.000      52.125
  44.5900         33249.000      52.355
  44.6900         32961.000      53.442
  44.7900         33432.000      52.450
  44.8900         32924.000      52.383
  44.9900         33267.000      52.631
  45.0900         33127.000      52.173
  45.1900         33429.000      51.817
  45.2900         33124.000      53.470
  45.3900         32941.000      51.856
  45.4900         33389.000      53.235
  45.5900         33245.000      53.179
  45.6900         33233.000      52.259
  45.7900         32897.000      51.981
  45.8900         33147.000      52.536
  45.9900         33038.000      53.104
  46.0900         33030.000      52.307
  46.1900         32979.000      52.887
  46.2900         33233.000      53.009
  46.3900         33352.000      52.545
  46.4900         33283.000      52.924
  46.5900         33423.000      52.943
  46.6900         33282.000      53.498
  46.7900         33048.000      52.555
  46.8900         33116.000      52.574
  46.9900         33031.000      52.096
  47.0900         33419.000      52.106
  47.1900         33327.000      52.602
  47.2900         33136.000      52.526
  47.3900         33274.000      52.697
  47.4900         33507.000      52.849
  47.5900         34278.000      53.254
  47.6900         36400.000      54.534
  47.7900         36897.000      54.800
  47.8900         36447.000      54.791
  47.9900         35458.000      54.194
  48.0900         34010.000      53.498
  48.1900         33552.000      52.906
  48.2900         33498.000      52.517
  48.3900         33013.000      53.038
  48.4900         33543.000      52.345
  48.5900         33514.000      53.526
