XYDATA SparksLave Co3O4-quenched_800_1.5K 
INTER        1       1       0     0.100000
TEMP       1.40080      1.63300      1.50000
! d1b Date 16-Nov-11 Time 05:16:18 Run 130106 130095>130106
! d1b Date 16-Nov-11 Time 05:16:18 Run 130106 130095>130106
! Monitor/counts, Counting time/sec:  1.07310e+007 1.07310e+007
   0.7900             4.000       1.000
   0.8900             5.000       1.000
   0.9900          1816.000      12.329
   1.0900          1812.000      12.000
   1.1900          1696.000      11.576
   1.2900          1690.000      11.874
   1.3900          1686.000      12.207
   1.4900          1772.000      12.124
   1.5900          1859.000      11.958
   1.6900          1886.000      12.083
   1.7900          2430.000      14.142
   1.8900          3844.000      18.276
   1.9900          6417.000      23.495
   2.0900          8712.000      27.803
   2.1900         10762.000      29.866
   2.2900         13960.000      34.699
   2.3900         17613.000      37.762
   2.4900         21401.000      42.332
   2.5900         25118.000      45.530
   2.6900         28579.000      49.071
   2.7900         31954.000      52.058
   2.8900         34587.000      53.731
   2.9900         37504.000      56.719
   3.0900         40412.000      58.095
   3.1900         43057.000      59.716
   3.2900         44800.000      60.399
   3.3900         45076.000      61.172
   3.4900         44270.000      61.278
   3.5900         44110.000      60.200
   3.6900         43442.000      59.649
   3.7900         42985.000      59.135
   3.8900         42047.000      59.152
   3.9900         42517.000      59.624
   4.0900         42614.000      60.390
   4.1900         42550.000      59.833
   4.2900         42498.000      59.599
   4.3900         42919.000      59.481
   4.4900         43426.000      60.067
   4.5900         44613.000      59.950
   4.6900         45849.000      62.442
   4.7900         46878.000      62.698
   4.8900         47773.000      63.522
   4.9900         49042.000      63.718
   5.0900         49647.000      65.414
   5.1900         51117.000      64.622
   5.2900         52943.000      65.970
   5.3900         53825.000      66.611
   5.4900         54639.000      67.520
   5.5900         56151.000      68.993
   5.6900         57623.000      68.578
   5.7900         58048.000      69.260
   5.8900         59882.000      70.328
   5.9900         60794.000      70.626
   6.0900         61393.000      71.708
   6.1900         61616.000      70.484
   6.2900         61705.000      71.784
   6.3900         61242.000      72.049
   6.4900         62002.000      71.379
   6.5900         61138.000      71.631
   6.6900         60830.000      71.035
   6.7900         60074.000      69.971
   6.8900         60092.000      70.512
   6.9900         59716.000      70.463
   7.0900         58229.000      70.370
   7.1900         58437.000      69.325
   7.2900         57678.000      69.203
   7.3900         57133.000      67.993
   7.4900         56501.000      68.826
   7.5900         55960.000      67.342
   7.6900         54850.000      67.268
   7.7900         53912.000      67.668
   7.8900         53356.000      66.761
   7.9900         52086.000      65.765
   8.0900         51272.000      65.582
   8.1900         50891.000      64.761
   8.2900         50316.000      64.800
   8.3900         49379.000      63.600
   8.4900         48436.000      64.273
   8.5900         47994.000      63.143
   8.6900         46703.000      62.209
   8.7900         46186.000      61.530
   8.8900         45307.000      61.041
   8.9900         44946.000      61.098
   9.0900         44001.000      59.548
   9.1900         42841.000      59.699
   9.2900         41825.000      59.439
   9.3900         41278.000      58.489
   9.4900         40644.000      57.472
   9.5900         39822.000      57.715
   9.6900         38702.000      56.683
   9.7900         38095.000      56.710
   9.8900         37257.000      55.344
   9.9900         36672.000      54.571
  10.0900         35448.000      53.703
  10.1900         34765.000      54.964
  10.2900         34279.000      54.028
  10.3900         33241.000      53.047
  10.4900         32983.000      52.106
  10.5900         32293.000      52.259
  10.6900         31875.000      52.488
  10.7900         31384.000      50.369
  10.8900         31029.000      51.846
  10.9900         30681.000      50.150
  11.0900         30561.000      49.830
  11.1900         30548.000      50.388
  11.2900         29911.000      50.339
  11.3900         30111.000      50.537
  11.4900         30313.000      50.774
  11.5900         30250.000      50.040
  11.6900         30401.000      50.517
  11.7900         30203.000      49.214
  11.8900         30190.000      50.666
  11.9900         30071.000      49.010
  12.0900         29935.000      49.508
  12.1900         29917.000      49.082
  12.2900         30109.000      50.418
  12.3900         30348.000      50.160
  12.4900         30109.000      49.739
  12.5900         30260.000      49.980
  12.6900         30207.000      50.170
  12.7900         29972.000      49.910
  12.8900         29892.000      49.578
  12.9900         29827.000      49.041
  13.0900         30008.000      49.356
  13.1900         29760.000      50.646
  13.2900         30120.000      50.200
  13.3900         30193.000      49.940
  13.4900         29855.000      49.061
  13.5900         29864.000      51.157
  13.6900         30040.000      50.130
  13.7900         29877.000      49.699
  13.8900         30339.000      50.150
  13.9900         29997.000      49.254
  14.0900         30132.000      50.040
  14.1900         29820.000      50.567
  14.2900         29988.000      49.295
  14.3900         30476.000      50.259
  14.4900         30019.000      49.719
  14.5900         30015.000      50.804
  14.6900         29986.000      49.325
  14.7900         30131.000      49.950
  14.8900         30150.000      50.249
  14.9900         30093.000      49.870
  15.0900         30018.000      49.950
  15.1900         30459.000      51.332
  15.2900         31718.000      51.836
  15.3900         32519.000      52.173
  15.4900         33023.000      52.086
  15.5900         31927.000      51.933
  15.6900         31169.000      51.010
  15.7900         30034.000      50.329
  15.8900         29888.000      49.497
  15.9900         30296.000      50.289
  16.0900         30200.000      49.840
  16.1900         30211.000      50.636
  16.2900         30154.000      50.359
  16.3900         30049.000      50.210
  16.4900         30438.000      50.468
  16.5900         30164.000      49.810
  16.6900         29910.000      49.538
  16.7900         30126.000      49.870
  16.8900         30293.000      49.071
  16.9900         30194.000      49.396
  17.0900         30198.000      50.220
  17.1900         30193.000      50.379
  17.2900         30339.000      49.920
  17.3900         30023.000      49.759
  17.4900         30364.000      49.386
  17.5900         30345.000      50.448
  17.6900         30697.000      51.245
  17.7900         31406.000      50.170
  17.8900         31861.000      51.049
  17.9900         31648.000      51.498
  18.0900         30939.000      51.254
  18.1900         30327.000      50.229
  18.2900         30298.000      50.269
  18.3900         30261.000      49.699
  18.4900         30304.000      49.538
  18.5900         30397.000      49.558
  18.6900         30328.000      50.784
  18.7900         30352.000      50.329
  18.8900         30187.000      49.769
  18.9900         30219.000      50.030
  19.0900         30346.000      51.323
  19.1900         30354.000      49.305
  19.2900         30252.000      50.259
  19.3900         30035.000      50.872
  19.4900         30157.000      49.629
  19.5900         30369.000      49.940
  19.6900         30506.000      50.398
  19.7900         30634.000      50.666
  19.8900         30468.000      50.418
  19.9900         30568.000      51.166
  20.0900         30471.000      51.108
  20.1900         30877.000      50.912
  20.2900         30314.000      49.598
  20.3900         30403.000      50.309
  20.4900         30665.000      50.040
  20.5900         30876.000      50.754
  20.6900         31109.000      51.215
  20.7900         31047.000      50.070
  20.8900         31009.000      50.626
  20.9900         30744.000      50.408
  21.0900         30592.000      50.259
  21.1900         30261.000      50.705
  21.2900         30612.000      50.488
  21.3900         30696.000      50.478
  21.4900         30821.000      50.596
  21.5900         30715.000      50.507
  21.6900         30453.000      50.239
  21.7900         30375.000      50.229
  21.8900         30691.000      50.774
  21.9900         30758.000      49.970
  22.0900         30614.000      50.537
  22.1900         30823.000      51.323
  22.2900         30631.000      50.408
  22.3900         30790.000      50.735
  22.4900         30994.000      51.274
  22.5900         30505.000      50.110
  22.6900         30699.000      50.428
  22.7900         30767.000      50.695
  22.8900         30749.000      50.468
  22.9900         30743.000      51.108
  23.0900         30968.000      50.882
  23.1900         30721.000      50.130
  23.2900         30651.000      50.577
  23.3900         30738.000      50.666
  23.4900         30721.000      50.784
  23.5900         30927.000      49.910
  23.6900         30776.000      50.060
  23.7900         30959.000      51.643
  23.8900         31446.000      50.537
  23.9900         31437.000      50.971
  24.0900         31037.000      51.098
  24.1900         31409.000      51.507
  24.2900         31127.000      50.941
  24.3900         30875.000      50.369
  24.4900         30903.000      49.930
  24.5900         31186.000      51.371
  24.6900         30979.000      50.438
  24.7900         31069.000      50.882
  24.8900         30935.000      50.190
  24.9900         30747.000      51.527
  25.0900         31029.000      50.764
  25.1900         31105.000      50.626
  25.2900         31234.000      51.459
  25.3900         31491.000      50.656
  25.4900         31730.000      51.245
  25.5900         31750.000      50.863
  25.6900         31237.000      50.468
  25.7900         31266.000      50.951
  25.8900         31206.000      50.941
  25.9900         31232.000      51.517
  26.0900         31297.000      51.147
  26.1900         31530.000      51.215
  26.2900         31292.000      51.137
  26.3900         31176.000      52.240
  26.4900         31748.000      51.517
  26.5900         31651.000      50.902
  26.6900         31251.000      51.420
  26.7900         30828.000      50.636
  26.8900         31295.000      50.872
  26.9900         31215.000      50.951
  27.0900         31323.000      50.636
  27.1900         31461.000      51.361
  27.2900         31617.000      50.813
  27.3900         31208.000      50.843
  27.4900         31603.000      51.176
  27.5900         31537.000      51.020
  27.6900         31350.000      51.235
  27.7900         31650.000      50.882
  27.8900         31384.000      51.274
  27.9900         31648.000      51.293
  28.0900         31640.000      51.108
  28.1900         31397.000      51.332
  28.2900         31653.000      51.730
  28.3900         31434.000      52.412
  28.4900         31711.000      50.754
  28.5900         31790.000      51.807
  28.6900         31615.000      51.836
  28.7900         31966.000      51.624
  28.8900         31566.000      51.205
  28.9900         31717.000      50.902
  29.0900         31910.000      51.468
  29.1900         32104.000      51.029
  29.2900         31476.000      50.980
  29.3900         32065.000      51.942
  29.4900         32157.000      51.274
  29.5900         32131.000      52.678
  29.6900         32383.000      52.182
  29.7900         32527.000      51.701
  29.8900         33876.000      53.188
  29.9900         34008.000      52.650
  30.0900         33593.000      53.132
  30.1900         32985.000      51.720
  30.2900         32756.000      52.106
  30.3900         32683.000      52.000
  30.4900         32783.000      51.759
  30.5900         33017.000      52.934
  30.6900         33210.000      53.582
  30.7900         34275.000      53.451
  30.8900         36187.000      55.417
  30.9900         43845.000      61.482
  31.0900         63335.000      72.478
  31.1900         95992.000      88.966
  31.2900        126231.000     102.669
  31.3900        128506.000     103.407
  31.4900        102279.000      92.720
  31.5900         66859.000      74.525
  31.6900         44571.000      61.311
  31.7900         36205.000      55.435
  31.8900         33956.000      52.849
  31.9900         33659.000      52.716
  32.0900         33216.000      53.254
  32.1900         32793.000      51.624
  32.2900         33341.000      53.113
  32.3900         32903.000      52.134
  32.4900         32508.000      52.259
  32.5900         32372.000      51.488
  32.6900         32621.000      52.096
  32.7900         32178.000      52.383
  32.8900         32236.000      52.144
  32.9900         32282.000      52.077
  33.0900         31855.000      50.882
  33.1900         32119.000      50.695
  33.2900         31994.000      51.264
  33.3900         32203.000      51.990
  33.4900         32315.000      51.730
  33.5900         32205.000      51.498
  33.6900         32268.000      51.875
  33.7900         32110.000      51.205
  33.8900         32461.000      51.556
  33.9900         32342.000      51.662
  34.0900         32752.000      52.640
  34.1900         33231.000      53.160
  34.2900         33116.000      52.735
  34.3900         32780.000      51.952
  34.4900         32697.000      52.326
  34.5900         32340.000      52.240
  34.6900         32153.000      52.335
  34.7900         32278.000      51.836
  34.8900         31811.000      50.931
  34.9900         32219.000      52.240
  35.0900         32293.000      52.297
  35.1900         32404.000      51.585
  35.2900         32245.000      51.923
  35.3900         32268.000      52.173
  35.4900         32605.000      52.536
  35.5900         32858.000      52.211
  35.6900         32743.000      52.402
  35.7900         33134.000      53.498
  35.8900         34556.000      54.479
  35.9900         38237.000      56.303
  36.0900         47514.000      61.766
  36.1900         62537.000      72.911
  36.2900         78381.000      80.523
  36.3900         84044.000      83.887
  36.4900         74449.000      78.740
  36.5900         56799.000      68.059
  36.6900         42848.000      58.966
  36.7900         36001.000      55.740
  36.8900         33724.000      52.858
  36.9900         33108.000      51.565
  37.0900         32682.000      52.783
  37.1900         32250.000      51.254
  37.2900         32011.000      51.000
  37.3900         32371.000      52.173
  37.4900         32138.000      51.284
  37.5900         32160.000      51.546
  37.6900         32035.000      52.029
  37.7900         31870.000      51.962
  37.8900         31789.000      51.856
  37.9900         31834.000      50.626
  38.0900         31766.000      51.039
  38.1900         31601.000      51.701
  38.2900         32075.000      51.245
  38.3900         31676.000      51.020
  38.4900         31863.000      51.029
  38.5900         31670.000      51.361
  38.6900         31951.000      51.303
  38.7900         31568.000      51.274
  38.8900         31369.000      50.833
  38.9900         31577.000      51.507
  39.0900         31432.000      51.361
  39.1900         31263.000      50.458
  39.2900         31786.000      51.313
  39.3900         31637.000      51.884
  39.4900         31913.000      51.303
  39.5900         31842.000      51.498
  39.6900         32546.000      51.332
  39.7900         32715.000      52.288
  39.8900         32106.000      50.646
  39.9900         31722.000      50.892
  40.0900         31461.000      51.846
  40.1900         31459.000      51.827
  40.2900         32191.000      51.585
  40.3900         31612.000      51.672
  40.4900         31888.000      51.585
  40.5900         31559.000      50.922
  40.6900         31602.000      51.962
  40.7900         31590.000      51.691
  40.8900         31897.000      51.313
  40.9900         31814.000      51.147
  41.0900         31767.000      51.913
  41.1900         31455.000      51.205
  41.2900         31307.000      51.371
  41.3900         31336.000      50.941
  41.4900         31189.000      50.961
  41.5900         31358.000      50.428
  41.6900         31391.000      50.547
  41.7900         31519.000      50.794
  41.8900         31179.000      51.000
  41.9900         30939.000      50.507
  42.0900         31496.000      51.653
  42.1900         31389.000      51.817
  42.2900         31737.000      51.624
  42.3900         31227.000      51.274
  42.4900         31206.000      51.653
  42.5900         31278.000      50.853
  42.6900         31205.000      51.000
  42.7900         31064.000      50.616
  42.8900         31223.000      51.410
  42.9900         31589.000      51.010
  43.0900         31303.000      50.379
  43.1900         31588.000      50.863
  43.2900         31268.000      50.833
  43.3900         31004.000      50.379
  43.4900         31095.000      50.498
  43.5900         31562.000      50.892
  43.6900         31454.000      51.215
  43.7900         31323.000      51.029
  43.8900         31216.000      51.342
  43.9900         31201.000      50.922
  44.0900         30959.000      51.108
  44.1900         31178.000      50.951
  44.2900         31539.000      51.323
  44.3900         31123.000      51.049
  44.4900         31419.000      51.498
  44.5900         31640.000      51.303
  44.6900         31374.000      50.388
  44.7900         31490.000      51.069
  44.8900         31544.000      51.740
  44.9900         31310.000      51.817
  45.0900         31325.000      51.059
  45.1900         31087.000      51.245
  45.2900         31209.000      50.596
  45.3900         31087.000      50.557
  45.4900         31541.000      51.536
  45.5900         31004.000      50.000
  45.6900         31465.000      51.459
  45.7900         31060.000      49.970
  45.8900         31128.000      50.675
  45.9900         31033.000      50.200
  46.0900         31200.000      50.912
  46.1900         30915.000      50.170
  46.2900         31028.000      50.646
  46.3900         31204.000      50.507
  46.4900         31052.000      50.200
  46.5900         31166.000      50.705
  46.6900         31238.000      51.313
  46.7900         31555.000      51.517
  46.8900         31097.000      50.030
  46.9900         31534.000      51.633
  47.0900         31409.000      51.962
  47.1900         31682.000      50.892
  47.2900         31646.000      51.264
  47.3900         31157.000      51.293
  47.4900         31106.000      50.715
  47.5900         31829.000      50.912
  47.6900         33327.000      52.469
  47.7900         34934.000      53.805
  47.8900         35649.000      54.360
  47.9900         34333.000      54.083
  48.0900         32659.000      52.735
  48.1900         31524.000      51.720
  48.2900         31277.000      50.428
  48.3900         31048.000      50.507
  48.4900         31549.000      50.606
  48.5900         31311.000      50.892
