XYDATA SparksLave Co3O4-quenched_850_1.5K 
INTER        1       1       0     0.100000
TEMP       1.65380      1.65970      1.50000
! d1b Date 14-Nov-11 Time 07:41:51 Run 129930 129917>129930
! d1b Date 14-Nov-11 Time 07:41:51 Run 129930 129917>129930
! Monitor/counts, Counting time/sec:  1.26717e+007 1.26717e+007
   0.7900             7.000       1.000
   0.8900             7.000       1.000
   0.9900          2243.000      12.923
   1.0900          2223.000      12.207
   1.1900          2245.000      13.528
   1.2900          2214.000      12.450
   1.3900          2192.000      12.961
   1.4900          2201.000      13.491
   1.5900          2296.000      12.767
   1.6900          2381.000      12.806
   1.7900          3074.000      15.395
   1.8900          4744.000      18.921
   1.9900          7810.000      24.000
   2.0900         10424.000      27.313
   2.1900         13164.000      30.725
   2.2900         16734.000      35.468
   2.3900         21095.000      38.432
   2.4900         25835.000      43.162
   2.5900         30234.000      46.465
   2.6900         34358.000      49.930
   2.7900         37888.000      52.288
   2.8900         41153.000      53.703
   2.9900         44204.000      57.140
   3.0900         48137.000      58.112
   3.1900         50883.000      60.382
   3.2900         53166.000      61.049
   3.3900         53105.000      62.865
   3.4900         52953.000      61.351
   3.5900         52710.000      61.620
   3.6900         51542.000      60.514
   3.7900         50805.000      60.183
   3.8900         49665.000      59.119
   3.9900         50859.000      60.042
   4.0900         50594.000      59.783
   4.1900         50753.000      59.447
   4.2900         50220.000      60.058
   4.3900         51189.000      60.341
   4.4900         52089.000      60.589
   4.5900         53570.000      62.121
   4.6900         55075.000      63.340
   4.7900         56696.000      62.905
   4.8900         57950.000      63.883
   4.9900         59273.000      63.984
   5.0900         61588.000      66.873
   5.1900         62790.000      67.409
   5.2900         64128.000      67.030
   5.3900         65576.000      68.059
   5.4900         67132.000      68.250
   5.5900         68768.000      69.807
   5.6900         70539.000      71.575
   5.7900         71922.000      71.777
   5.8900         73308.000      71.421
   5.9900         74839.000      73.410
   6.0900         75673.000      74.398
   6.1900         75546.000      73.709
   6.2900         75488.000      73.892
   6.3900         75553.000      73.865
   6.4900         75266.000      72.883
   6.5900         75256.000      74.277
   6.6900         74512.000      72.277
   6.7900         73983.000      72.815
   6.8900         73523.000      72.208
   6.9900         73470.000      72.277
   7.0900         72578.000      72.732
   7.1900         71916.000      71.456
   7.2900         71554.000      72.194
   7.3900         70188.000      70.349
   7.4900         69529.000      69.361
   7.5900         68077.000      69.210
   7.6900         67280.000      68.942
   7.7900         66936.000      69.224
   7.8900         65899.000      68.184
   7.9900         65064.000      67.602
   8.0900         63765.000      68.110
   8.1900         62933.000      66.641
   8.2900         62338.000      66.701
   8.3900         60649.000      65.422
   8.4900         60394.000      65.597
   8.5900         59100.000      64.938
   8.6900         58254.000      64.560
   8.7900         57273.000      62.865
   8.8900         56373.000      63.174
   8.9900         55607.000      62.992
   9.0900         55010.000      62.522
   9.1900         53864.000      60.943
   9.2900         53104.000      62.370
   9.3900         51578.000      60.663
   9.4900         51352.000      59.917
   9.5900         49941.000      59.414
   9.6900         49029.000      58.932
   9.7900         48092.000      58.694
   9.8900         47445.000      57.974
   9.9900         46141.000      57.245
  10.0900         45305.000      57.175
  10.1900         44337.000      56.089
  10.2900         43626.000      56.045
  10.3900         42530.000      55.299
  10.4900         41810.000      54.074
  10.5900         41316.000      54.562
  10.6900         41113.000      54.461
  10.7900         39808.000      53.085
  10.8900         39436.000      52.688
  10.9900         39492.000      54.608
  11.0900         38976.000      52.192
  11.1900         39087.000      52.726
  11.2900         38957.000      53.226
  11.3900         38519.000      53.198
  11.4900         38676.000      52.593
  11.5900         38777.000      53.179
  11.6900         39034.000      53.357
  11.7900         38851.000      51.923
  11.8900         38740.000      52.972
  11.9900         38541.000      52.460
  12.0900         38676.000      52.345
  12.1900         38408.000      52.669
  12.2900         38488.000      51.730
  12.3900         38479.000      52.115
  12.4900         38639.000      52.924
  12.5900         38573.000      52.259
  12.6900         38310.000      52.269
  12.7900         38392.000      52.202
  12.8900         38210.000      53.320
  12.9900         38470.000      52.077
  13.0900         38535.000      52.374
  13.1900         38511.000      52.915
  13.2900         38469.000      52.412
  13.3900         38408.000      51.904
  13.4900         38749.000      52.269
  13.5900         38285.000      51.749
  13.6900         38425.000      52.163
  13.7900         38301.000      52.479
  13.8900         38528.000      52.086
  13.9900         38325.000      53.009
  14.0900         38335.000      52.640
  14.1900         38247.000      52.488
  14.2900         38374.000      51.894
  14.3900         38462.000      53.028
  14.4900         38259.000      51.420
  14.5900         38460.000      51.933
  14.6900         38258.000      52.431
  14.7900         38240.000      51.313
  14.8900         38326.000      52.374
  14.9900         38421.000      52.564
  15.0900         38603.000      52.479
  15.1900         39006.000      53.367
  15.2900         40567.000      54.037
  15.3900         42193.000      55.597
  15.4900         42637.000      55.000
  15.5900         41326.000      54.102
  15.6900         39672.000      53.395
  15.7900         39208.000      53.179
  15.8900         38316.000      52.773
  15.9900         38631.000      51.691
  16.0900         38697.000      52.526
  16.1900         38236.000      53.057
  16.2900         38528.000      52.602
  16.3900         38598.000      52.612
  16.4900         38617.000      52.402
  16.5900         38302.000      52.278
  16.6900         38704.000      52.735
  16.7900         39070.000      53.094
  16.8900         38483.000      52.173
  16.9900         38577.000      53.600
  17.0900         38659.000      53.320
  17.1900         38440.000      53.179
  17.2900         38520.000      52.000
  17.3900         38271.000      51.875
  17.4900         38841.000      52.640
  17.5900         38987.000      53.075
  17.6900         39444.000      53.796
  17.7900         39948.000      53.572
  17.8900         40817.000      55.154
  17.9900         40617.000      54.129
  18.0900         39613.000      53.151
  18.1900         39046.000      53.852
  18.2900         38613.000      51.565
  18.3900         38986.000      53.722
  18.4900         38810.000      51.730
  18.5900         38926.000      53.619
  18.6900         38482.000      52.773
  18.7900         39181.000      52.896
  18.8900         39160.000      52.802
  18.9900         39002.000      52.754
  19.0900         38958.000      53.028
  19.1900         38683.000      52.659
  19.2900         39006.000      53.217
  19.3900         38754.000      52.029
  19.4900         38501.000      53.907
  19.5900         38650.000      52.877
  19.6900         38819.000      52.735
  19.7900         39334.000      53.694
  19.8900         39153.000      53.019
  19.9900         39352.000      52.783
  20.0900         38552.000      52.412
  20.1900         39125.000      53.740
  20.2900         38563.000      52.106
  20.3900         38748.000      52.792
  20.4900         39304.000      54.083
  20.5900         39510.000      53.263
  20.6900         40085.000      53.423
  20.7900         39802.000      52.421
  20.8900         39384.000      53.619
  20.9900         39069.000      52.877
  21.0900         39433.000      53.507
  21.1900         39294.000      53.254
  21.2900         38971.000      53.759
  21.3900         39331.000      53.879
  21.4900         39170.000      52.526
  21.5900         39556.000      52.839
  21.6900         39427.000      52.707
  21.7900         39109.000      51.923
  21.8900         39170.000      52.943
  21.9900         39193.000      53.028
  22.0900         39135.000      52.839
  22.1900         39087.000      53.385
  22.2900         39328.000      52.316
  22.3900         38879.000      53.824
  22.4900         39358.000      53.731
  22.5900         38837.000      52.688
  22.6900         39265.000      53.516
  22.7900         39113.000      53.722
  22.8900         39197.000      53.498
  22.9900         38915.000      52.915
  23.0900         39347.000      52.877
  23.1900         39168.000      51.981
  23.2900         39143.000      51.672
  23.3900         39270.000      53.572
  23.4900         39929.000      52.858
  23.5900         39441.000      52.555
  23.6900         39580.000      53.254
  23.7900         39783.000      53.235
  23.8900         39806.000      54.369
  23.9900         40394.000      53.348
  24.0900         40038.000      54.194
  24.1900         39851.000      52.507
  24.2900         39447.000      53.432
  24.3900         39486.000      53.094
  24.4900         39170.000      53.488
  24.5900         39647.000      52.924
  24.6900         39467.000      53.057
  24.7900         39446.000      53.057
  24.8900         39848.000      53.254
  24.9900         39160.000      53.619
  25.0900         39920.000      52.669
  25.1900         39841.000      52.335
  25.2900         39940.000      53.488
  25.3900         40514.000      54.763
  25.4900         40769.000      54.176
  25.5900         40572.000      54.148
  25.6900         40168.000      53.413
  25.7900         40078.000      53.423
  25.8900         39970.000      54.148
  25.9900         39964.000      53.591
  26.0900         40086.000      52.802
  26.1900         40166.000      54.240
  26.2900         39934.000      54.845
  26.3900         39985.000      53.712
  26.4900         40061.000      52.783
  26.5900         39870.000      53.824
  26.6900         39857.000      52.943
  26.7900         40005.000      52.877
  26.8900         40169.000      53.600
  26.9900         40415.000      53.329
  27.0900         39944.000      53.460
  27.1900         39855.000      53.301
  27.2900         40514.000      54.019
  27.3900         39904.000      52.972
  27.4900         40339.000      53.009
  27.5900         40144.000      53.619
  27.6900         40521.000      53.310
  27.7900         40151.000      52.877
  27.8900         40521.000      53.842
  27.9900         40361.000      53.123
  28.0900         40373.000      53.600
  28.1900         40403.000      53.879
  28.2900         40573.000      53.432
  28.3900         40459.000      53.329
  28.4900         40537.000      54.009
  28.5900         40594.000      54.387
  28.6900         40544.000      53.470
  28.7900         40532.000      53.376
  28.8900         40569.000      54.863
  28.9900         40661.000      54.452
  29.0900         40967.000      53.600
  29.1900         40686.000      54.019
  29.2900         40962.000      53.963
  29.3900         41019.000      53.385
  29.4900         41052.000      54.000
  29.5900         40678.000      53.759
  29.6900         40969.000      53.926
  29.7900         41475.000      54.433
  29.8900         42913.000      55.055
  29.9900         43530.000      56.285
  30.0900         43252.000      55.534
  30.1900         42485.000      55.812
  30.2900         41800.000      54.699
  30.3900         42012.000      54.991
  30.4900         41901.000      55.118
  30.5900         41966.000      55.036
  30.6900         42891.000      55.381
  30.7900         43877.000      56.329
  30.8900         45566.000      57.228
  30.9900         55438.000      62.490
  31.0900         82018.000      76.466
  31.1900        131435.000      96.462
  31.2900        179761.000     113.644
  31.3900        190735.000     116.666
  31.4900        155663.000     106.550
  31.5900         99905.000      84.404
  31.6900         62322.000      67.276
  31.7900         47340.000      58.095
  31.8900         44047.000      55.982
  31.9900         43194.000      56.009
  32.0900         42299.000      55.381
  32.1900         42032.000      54.194
  32.2900         41985.000      54.781
  32.3900         41546.000      55.118
  32.4900         41697.000      55.290
  32.5900         41963.000      54.772
  32.6900         41344.000      54.553
  32.7900         41616.000      54.809
  32.8900         41419.000      54.589
  32.9900         41272.000      54.653
  33.0900         41241.000      54.194
  33.1900         41635.000      53.301
  33.2900         41430.000      54.369
  33.3900         41601.000      54.525
  33.4900         41289.000      54.194
  33.5900         41060.000      54.332
  33.6900         41437.000      54.644
  33.7900         41402.000      54.589
  33.8900         41275.000      54.479
  33.9900         41513.000      54.295
  34.0900         41771.000      54.525
  34.1900         42548.000      55.191
  34.2900         42273.000      54.690
  34.3900         42137.000      55.163
  34.4900         41864.000      55.018
  34.5900         41312.000      53.740
  34.6900         41089.000      55.209
  34.7900         40803.000      53.207
  34.8900         41451.000      55.145
  34.9900         41448.000      55.000
  35.0900         40936.000      54.083
  35.1900         41359.000      54.295
  35.2900         41549.000      54.982
  35.3900         41179.000      55.163
  35.4900         41537.000      54.763
  35.5900         41719.000      54.369
  35.6900         42035.000      55.371
  35.7900         42621.000      54.690
  35.8900         43901.000      55.929
  35.9900         48506.000      59.042
  36.0900         60478.000      66.476
  36.1900         83882.000      77.065
  36.2900        109317.000      88.363
  36.3900        119882.000      92.666
  36.4900        108484.000      87.744
  36.5900         82427.000      76.518
  36.6900         58512.000      65.015
  36.7900         46885.000      57.654
  36.8900         43098.000      56.045
  36.9900         42424.000      55.344
  37.0900         41706.000      54.608
  37.1900         41205.000      54.397
  37.2900         41482.000      54.964
  37.3900         41031.000      53.917
  37.4900         40907.000      54.433
  37.5900         41044.000      54.286
  37.6900         40860.000      54.019
  37.7900         40933.000      54.314
  37.8900         40711.000      54.507
  37.9900         41143.000      53.572
  38.0900         40658.000      53.722
  38.1900         40425.000      53.329
  38.2900         40404.000      54.074
  38.3900         40279.000      53.926
  38.4900         40534.000      53.245
  38.5900         40033.000      54.148
  38.6900         40585.000      53.498
  38.7900         40517.000      53.852
  38.8900         40173.000      53.572
  38.9900         40564.000      53.861
  39.0900         40392.000      53.759
  39.1900         40106.000      53.684
  39.2900         40841.000      53.759
  39.3900         40212.000      53.777
  39.4900         40247.000      53.245
  39.5900         40459.000      53.028
  39.6900         41627.000      54.452
  39.7900         41711.000      54.635
  39.8900         41312.000      54.672
  39.9900         40692.000      54.185
  40.0900         40279.000      53.516
  40.1900         40519.000      53.749
  40.2900         41045.000      53.944
  40.3900         40521.000      54.845
  40.4900         40597.000      53.944
  40.5900         41005.000      54.672
  40.6900         40498.000      54.286
  40.7900         40586.000      54.176
  40.8900         40598.000      54.046
  40.9900         40465.000      53.777
  41.0900         40331.000      53.591
  41.1900         39904.000      53.028
  41.2900         40348.000      53.759
  41.3900         40252.000      54.882
  41.4900         40033.000      54.213
  41.5900         39792.000      53.038
  41.6900         40243.000      53.647
  41.7900         39876.000      54.203
  41.8900         40025.000      53.479
  41.9900         39804.000      54.617
  42.0900         39695.000      53.292
  42.1900         40093.000      53.179
  42.2900         40419.000      53.889
  42.3900         39790.000      52.972
  42.4900         39839.000      53.094
  42.5900         39443.000      52.981
  42.6900         40211.000      54.314
  42.7900         39822.000      53.628
  42.8900         39657.000      52.450
  42.9900         39677.000      52.593
  43.0900         39349.000      52.802
  43.1900         39952.000      54.562
  43.2900         39343.000      53.235
  43.3900         39544.000      53.703
  43.4900         39744.000      52.953
  43.5900         40100.000      53.367
  43.6900         40334.000      52.631
  43.7900         39409.000      52.887
  43.8900         39799.000      52.479
  43.9900         39559.000      53.170
  44.0900         39902.000      54.019
  44.1900         39662.000      53.879
  44.2900         39663.000      53.833
  44.3900         39544.000      53.207
  44.4900         39865.000      53.235
  44.5900         39607.000      53.188
  44.6900         39639.000      52.412
  44.7900         39765.000      53.479
  44.8900         40073.000      53.805
  44.9900         39611.000      52.726
  45.0900         39942.000      53.488
  45.1900         39798.000      52.735
  45.2900         39425.000      53.113
  45.3900         39205.000      52.726
  45.4900         39891.000      51.653
  45.5900         39680.000      53.310
  45.6900         39877.000      53.141
  45.7900         39640.000      53.535
  45.8900         40036.000      54.727
  45.9900         39421.000      53.066
  46.0900         39523.000      53.432
  46.1900         39782.000      53.749
  46.2900         39785.000      53.824
  46.3900         39831.000      53.703
  46.4900         39853.000      54.213
  46.5900         39722.000      53.179
  46.6900         39845.000      52.811
  46.7900         39703.000      52.593
  46.8900         39584.000      53.442
  46.9900         39966.000      53.488
  47.0900         39726.000      53.544
  47.1900         39368.000      53.207
  47.2900         39762.000      53.516
  47.3900         40033.000      53.423
  47.4900         40070.000      52.820
  47.5900         40596.000      53.628
  47.6900         42310.000      54.653
  47.7900         44730.000      55.642
  47.8900         45370.000      57.140
  47.9900         44406.000      57.175
  48.0900         41774.000      54.406
  48.1900         40323.000      53.805
  48.2900         39860.000      53.254
  48.3900         39778.000      53.544
  48.4900         39464.000      53.207
  48.5900         40141.000      53.954
