XYDATA SparksLave Co3O4-quenched_850_100K 
INTER        1       1       0     0.100000
TEMP       99.7840      100.004      100.000
! d1b Date 14-Nov-11 Time 10:26:34 Run 129944 129931>129944
! d1b Date 14-Nov-11 Time 10:26:34 Run 129944 129931>129944
! Monitor/counts, Counting time/sec:  1.26783e+007 1.26783e+007
   0.7900             2.000       1.000
   0.8900            10.000       1.414
   0.9900          2280.000      12.166
   1.0900          2292.000      12.923
   1.1900          2253.000      11.619
   1.2900          2091.000      12.124
   1.3900          2178.000      12.247
   1.4900          2233.000      12.923
   1.5900          2278.000      12.923
   1.6900          2465.000      13.266
   1.7900          3041.000      14.765
   1.8900          4666.000      18.574
   1.9900          7622.000      22.956
   2.0900         10790.000      27.767
   2.1900         13115.000      30.480
   2.2900         16847.000      34.147
   2.3900         21252.000      38.949
   2.4900         25968.000      42.603
   2.5900         30249.000      46.087
   2.6900         34702.000      49.629
   2.7900         38017.000      51.952
   2.8900         41607.000      53.907
   2.9900         44433.000      56.409
   3.0900         48171.000      59.833
   3.1900         51421.000      60.523
   3.2900         53381.000      62.016
   3.3900         53736.000      62.241
   3.4900         53052.000      61.652
   3.5900         52490.000      60.506
   3.6900         51446.000      60.473
   3.7900         51233.000      60.647
   3.8900         49595.000      60.017
   3.9900         50632.000      60.274
   4.0900         50174.000      59.791
   4.1900         50321.000      59.900
   4.2900         50775.000      60.025
   4.3900         51466.000      60.506
   4.4900         52371.000      61.262
   4.5900         53900.000      62.338
   4.6900         55556.000      62.857
   4.7900         57181.000      64.101
   4.8900         59265.000      64.351
   4.9900         61257.000      66.317
   5.0900         62744.000      67.528
   5.1900         64978.000      67.868
   5.2900         66822.000      69.549
   5.3900         68633.000      71.127
   5.4900         69742.000      69.936
   5.5900         72175.000      71.428
   5.6900         73350.000      73.130
   5.7900         75315.000      72.897
   5.8900         77118.000      73.123
   5.9900         78513.000      74.893
   6.0900         79091.000      74.626
   6.1900         79270.000      74.471
   6.2900         79426.000      75.816
   6.3900         78743.000      74.236
   6.4900         79330.000      75.100
   6.5900         78910.000      75.140
   6.6900         78052.000      75.053
   6.7900         77280.000      73.607
   6.8900         77380.000      74.371
   6.9900         76957.000      74.101
   7.0900         76342.000      74.135
   7.1900         74720.000      72.581
   7.2900         74417.000      72.979
   7.3900         73484.000      72.180
   7.4900         73040.000      71.882
   7.5900         72166.000      71.477
   7.6900         71011.000      71.337
   7.7900         70717.000      70.944
   7.8900         70027.000      71.014
   7.9900         68158.000      70.036
   8.0900         67480.000      70.043
   8.1900         66680.000      68.724
   8.2900         65897.000      69.498
   8.3900         64667.000      67.742
   8.4900         64253.000      67.772
   8.5900         63112.000      66.438
   8.6900         61802.000      65.658
   8.7900         60649.000      65.719
   8.8900         59917.000      65.628
   8.9900         58609.000      64.467
   9.0900         58354.000      64.707
   9.1900         57134.000      64.529
   9.2900         56522.000      63.545
   9.3900         55461.000      63.119
   9.4900         54826.000      63.309
   9.5900         53324.000      62.426
   9.6900         51954.000      61.156
   9.7900         51691.000      60.506
   9.8900         50592.000      60.556
   9.9900         49425.000      60.075
  10.0900         48583.000      59.102
  10.1900         47645.000      58.626
  10.2900         46655.000      57.324
  10.3900         46329.000      57.845
  10.4900         45219.000      57.350
  10.5900         44460.000      56.427
  10.6900         44017.000      56.329
  10.7900         43415.000      55.272
  10.8900         42667.000      55.027
  10.9900         42866.000      56.727
  11.0900         42667.000      55.678
  11.1900         42719.000      54.489
  11.2900         42294.000      55.480
  11.3900         41981.000      54.443
  11.4900         42437.000      55.082
  11.5900         42528.000      55.335
  11.6900         42123.000      55.191
  11.7900         41985.000      54.489
  11.8900         41925.000      55.516
  11.9900         41801.000      54.342
  12.0900         42284.000      54.129
  12.1900         41988.000      54.745
  12.2900         42119.000      54.222
  12.3900         41869.000      54.415
  12.4900         41811.000      54.406
  12.5900         42563.000      54.791
  12.6900         42036.000      54.836
  12.7900         42059.000      53.591
  12.8900         41670.000      54.286
  12.9900         41923.000      55.027
  13.0900         41646.000      54.277
  13.1900         41488.000      54.378
  13.2900         41407.000      53.451
  13.3900         41537.000      54.580
  13.4900         41356.000      54.387
  13.5900         41649.000      54.148
  13.6900         41754.000      53.991
  13.7900         41704.000      53.907
  13.8900         41580.000      54.065
  13.9900         41741.000      54.699
  14.0900         41677.000      54.240
  14.1900         41991.000      54.945
  14.2900         41512.000      54.406
  14.3900         41363.000      54.626
  14.4900         41822.000      55.027
  14.5900         41946.000      54.479
  14.6900         41653.000      55.435
  14.7900         41788.000      54.083
  14.8900         41625.000      54.763
  14.9900         42072.000      54.433
  15.0900         41799.000      54.268
  15.1900         42465.000      54.571
  15.2900         42604.000      55.399
  15.3900         43395.000      55.191
  15.4900         43481.000      55.263
  15.5900         43043.000      55.417
  15.6900         41962.000      54.580
  15.7900         42227.000      54.991
  15.8900         41765.000      54.037
  15.9900         42068.000      54.213
  16.0900         42080.000      53.684
  16.1900         41522.000      53.796
  16.2900         41756.000      55.245
  16.3900         42074.000      54.443
  16.4900         41647.000      53.842
  16.5900         41894.000      54.818
  16.6900         42190.000      54.415
  16.7900         41599.000      55.145
  16.8900         41893.000      55.462
  16.9900         42100.000      53.926
  17.0900         41978.000      53.935
  17.1900         42024.000      55.100
  17.2900         41968.000      54.690
  17.3900         41861.000      54.936
  17.4900         41896.000      53.600
  17.5900         41991.000      54.617
  17.6900         42136.000      54.635
  17.7900         41906.000      53.842
  17.8900         41841.000      54.617
  17.9900         42174.000      55.480
  18.0900         42534.000      55.426
  18.1900         42430.000      54.452
  18.2900         42192.000      54.945
  18.3900         42161.000      55.182
  18.4900         42239.000      54.369
  18.5900         42469.000      54.635
  18.6900         42583.000      54.909
  18.7900         42727.000      54.663
  18.8900         41991.000      54.745
  18.9900         42150.000      54.690
  19.0900         42382.000      54.653
  19.1900         42208.000      55.390
  19.2900         42447.000      54.690
  19.3900         41894.000      54.028
  19.4900         42227.000      54.571
  19.5900         42158.000      54.644
  19.6900         42025.000      54.203
  19.7900         42049.000      55.154
  19.8900         42325.000      55.444
  19.9900         42632.000      54.727
  20.0900         42319.000      55.579
  20.1900         42340.000      54.672
  20.2900         42624.000      55.749
  20.3900         42509.000      54.332
  20.4900         42766.000      55.937
  20.5900         42893.000      54.553
  20.6900         42888.000      55.254
  20.7900         42877.000      55.371
  20.8900         43352.000      55.344
  20.9900         43098.000      55.317
  21.0900         42734.000      54.791
  21.1900         42687.000      55.326
  21.2900         42605.000      54.991
  21.3900         42472.000      54.120
  21.4900         42378.000      54.644
  21.5900         42745.000      54.415
  21.6900         42350.000      54.644
  21.7900         42811.000      54.882
  21.8900         42541.000      54.754
  21.9900         42446.000      55.100
  22.0900         43092.000      54.991
  22.1900         42751.000      55.399
  22.2900         42666.000      54.809
  22.3900         42497.000      54.754
  22.4900         42412.000      55.669
  22.5900         42622.000      54.489
  22.6900         42747.000      54.955
  22.7900         42683.000      55.381
  22.8900         43278.000      56.152
  22.9900         42789.000      54.964
  23.0900         42644.000      54.599
  23.1900         42498.000      54.672
  23.2900         42678.000      55.073
  23.3900         42737.000      55.642
  23.4900         42533.000      54.845
  23.5900         42824.000      54.827
  23.6900         42392.000      54.397
  23.7900         43298.000      55.507
  23.8900         43253.000      55.045
  23.9900         43618.000      55.561
  24.0900         43360.000      56.294
  24.1900         43055.000      55.588
  24.2900         42893.000      55.543
  24.3900         42983.000      55.426
  24.4900         42834.000      55.597
  24.5900         42800.000      55.561
  24.6900         42949.000      54.644
  24.7900         43061.000      55.848
  24.8900         43206.000      55.091
  24.9900         42875.000      55.281
  25.0900         42829.000      54.433
  25.1900         42740.000      55.471
  25.2900         43225.000      54.827
  25.3900         44069.000      55.723
  25.4900         44231.000      55.615
  25.5900         43553.000      54.690
  25.6900         43092.000      56.577
  25.7900         43128.000      55.082
  25.8900         43175.000      55.227
  25.9900         43476.000      55.172
  26.0900         43294.000      55.480
  26.1900         43283.000      55.561
  26.2900         43623.000      55.100
  26.3900         43026.000      54.681
  26.4900         43162.000      55.875
  26.5900         43016.000      55.767
  26.6900         42948.000      54.927
  26.7900         43134.000      55.082
  26.8900         43371.000      55.462
  26.9900         43726.000      56.754
  27.0900         43395.000      55.705
  27.1900         43221.000      55.381
  27.2900         43309.000      55.009
  27.3900         43553.000      55.534
  27.4900         43203.000      55.308
  27.5900         43152.000      55.857
  27.6900         43232.000      55.839
  27.7900         43391.000      55.344
  27.8900         42995.000      55.109
  27.9900         43176.000      55.281
  28.0900         43451.000      56.152
  28.1900         43590.000      55.794
  28.2900         43761.000      55.776
  28.3900         43532.000      55.308
  28.4900         43626.000      56.267
  28.5900         43493.000      55.154
  28.6900         43707.000      55.588
  28.7900         43822.000      55.884
  28.8900         43154.000      55.920
  28.9900         43708.000      55.371
  29.0900         43627.000      55.767
  29.1900         43732.000      54.882
  29.2900         43503.000      55.000
  29.3900         43756.000      55.254
  29.4900         43643.000      55.027
  29.5900         43757.000      55.785
  29.6900         43423.000      56.480
  29.7900         43991.000      55.462
  29.8900         44579.000      55.453
  29.9900         45081.000      57.254
  30.0900         44975.000      56.921
  30.1900         44157.000      55.821
  30.2900         43980.000      55.453
  30.3900         44486.000      55.830
  30.4900         43869.000      56.604
  30.5900         44029.000      55.642
  30.6900         44088.000      55.794
  30.7900         44446.000      55.453
  30.8900         45581.000      56.701
  30.9900         49921.000      59.059
  31.0900         63502.000      67.498
  31.1900         88838.000      79.819
  31.2900        114669.000      90.438
  31.3900        119366.000      92.369
  31.4900         98626.000      83.481
  31.5900         70553.000      71.225
  31.6900         52156.000      60.498
  31.7900         45654.000      56.974
  31.8900         44817.000      56.895
  31.9900         44144.000      55.920
  32.0900         44168.000      55.857
  32.1900         44074.000      55.920
  32.2900         44128.000      56.507
  32.3900         43898.000      56.542
  32.4900         43880.000      55.516
  32.5900         43208.000      55.624
  32.6900         43818.000      55.335
  32.7900         43639.000      55.839
  32.8900         43295.000      55.776
  32.9900         43623.000      56.036
  33.0900         43522.000      55.453
  33.1900         43761.000      56.365
  33.2900         43650.000      55.749
  33.3900         43608.000      55.812
  33.4900         43653.000      55.236
  33.5900         43363.000      54.754
  33.6900         43362.000      55.417
  33.7900         43225.000      54.653
  33.8900         43469.000      55.705
  33.9900         43852.000      56.232
  34.0900         44080.000      55.642
  34.1900         44766.000      56.383
  34.2900         44450.000      56.000
  34.3900         44155.000      56.427
  34.4900         43900.000      55.381
  34.5900         43274.000      55.118
  34.6900         43497.000      54.818
  34.7900         42845.000      55.489
  34.8900         43247.000      55.018
  34.9900         43269.000      55.200
  35.0900         43601.000      55.758
  35.1900         43118.000      56.205
  35.2900         43391.000      56.116
  35.3900         42878.000      55.426
  35.4900         43022.000      55.009
  35.5900         43619.000      55.227
  35.6900         43122.000      54.690
  35.7900         43220.000      55.109
  35.8900         43228.000      55.660
  35.9900         42972.000      56.391
  36.0900         44037.000      56.000
  36.1900         47108.000      58.267
  36.2900         53340.000      61.612
  36.3900         55964.000      63.710
  36.4900         51890.000      60.934
  36.5900         46882.000      56.409
  36.6900         43929.000      55.362
  36.7900         43210.000      54.918
  36.8900         42915.000      54.599
  36.9900         43368.000      56.062
  37.0900         42728.000      55.236
  37.1900         42609.000      54.708
  37.2900         42408.000      54.599
  37.3900         42802.000      55.588
  37.4900         42903.000      55.696
  37.5900         42895.000      55.462
  37.6900         42872.000      55.453
  37.7900         42578.000      55.624
  37.8900         42592.000      55.678
  37.9900         42675.000      54.973
  38.0900         42501.000      54.452
  38.1900         42302.000      54.507
  38.2900         42607.000      55.245
  38.3900         42219.000      55.579
  38.4900         42769.000      54.580
  38.5900         42341.000      54.818
  38.6900         42485.000      55.172
  38.7900         42541.000      54.982
  38.8900         42339.000      56.418
  38.9900         42467.000      54.259
  39.0900         42356.000      55.848
  39.1900         42321.000      55.245
  39.2900         42740.000      54.982
  39.3900         42367.000      55.344
  39.4900         42471.000      54.452
  39.5900         42939.000      54.763
  39.6900         43084.000      54.727
  39.7900         43333.000      55.426
  39.8900         43269.000      55.245
  39.9900         42563.000      55.507
  40.0900         42397.000      54.433
  40.1900         42547.000      54.507
  40.2900         42437.000      54.268
  40.3900         42419.000      55.326
  40.4900         42348.000      54.836
  40.5900         42158.000      54.617
  40.6900         42238.000      54.708
  40.7900         42321.000      54.800
  40.8900         42021.000      54.268
  40.9900         41867.000      54.909
  41.0900         41988.000      55.055
  41.1900         42228.000      55.453
  41.2900         42542.000      55.200
  41.3900         42083.000      55.200
  41.4900         41989.000      54.534
  41.5900         41990.000      53.889
  41.6900         42269.000      54.415
  41.7900         42222.000      54.781
  41.8900         42059.000      54.818
  41.9900         41975.000      54.580
  42.0900         42145.000      55.471
  42.1900         42057.000      54.791
  42.2900         42388.000      54.617
  42.3900         42341.000      55.344
  42.4900         42201.000      54.562
  42.5900         41773.000      54.534
  42.6900         41821.000      53.638
  42.7900         41672.000      55.064
  42.8900         41786.000      54.222
  42.9900         41924.000      55.606
  43.0900         41705.000      54.544
  43.1900         42064.000      54.918
  43.2900         41746.000      53.898
  43.3900         41848.000      54.918
  43.4900         42309.000      54.571
  43.5900         42113.000      54.461
  43.6900         42183.000      55.045
  43.7900         41687.000      54.176
  43.8900         41795.000      55.245
  43.9900         41517.000      54.452
  44.0900         41688.000      53.954
  44.1900         41771.000      54.378
  44.2900         41780.000      55.100
  44.3900         42065.000      54.056
  44.4900         41854.000      54.690
  44.5900         41756.000      54.443
  44.6900         41478.000      54.763
  44.7900         42026.000      54.909
  44.8900         41545.000      53.376
  44.9900         41868.000      55.100
  45.0900         41542.000      54.836
  45.1900         41876.000      54.617
  45.2900         41726.000      54.763
  45.3900         42014.000      54.507
  45.4900         41735.000      54.332
  45.5900         42075.000      54.745
  45.6900         42017.000      54.479
  45.7900         41836.000      55.344
  45.8900         41709.000      54.433
  45.9900         41759.000      54.498
  46.0900         41763.000      54.891
  46.1900         41580.000      54.286
  46.2900         41671.000      55.381
  46.3900         41918.000      54.378
  46.4900         41938.000      54.194
  46.5900         41906.000      54.945
  46.6900         41702.000      53.935
  46.7900         42077.000      54.305
  46.8900         41729.000      54.083
  46.9900         42152.000      55.045
  47.0900         41683.000      54.037
  47.1900         42574.000      55.911
  47.2900         41678.000      54.580
  47.3900         41681.000      54.580
  47.4900         41569.000      54.424
  47.5900         42381.000      54.498
  47.6900         44190.000      55.705
  47.7900         46979.000      57.341
  47.8900         47450.000      57.175
  47.9900         46113.000      57.749
  48.0900         43615.000      56.312
  48.1900         42533.000      55.417
  48.2900         42120.000      54.378
  48.3900         41954.000      55.018
  48.4900         41664.000      54.525
  48.5900         42063.000      55.281
