XYDATA SparksLave CoO-quenched_900_300K 
INTER        1       1       0     0.100000
TEMP       302.776      302.495      300.000
! d1b Date 14-Nov-11 Time 17:36:36 Run 129973 129962>129973
! d1b Date 14-Nov-11 Time 17:36:36 Run 129973 129962>129973
! Monitor/counts, Counting time/sec:  1.09812e+007 1.09812e+007
   0.7900             5.000       1.000
   0.8900             5.000       1.000
   0.9900          2031.000      13.342
   1.0900          1994.000      13.601
   1.1900          1945.000      12.450
   1.2900          1950.000      12.923
   1.3900          1858.000      11.958
   1.4900          2065.000      13.416
   1.5900          1969.000      12.570
   1.6900          2080.000      13.038
   1.7900          2784.000      14.832
   1.8900          4013.000      18.762
   1.9900          6550.000      23.087
   2.0900          8910.000      28.018
   2.1900         11307.000      30.282
   2.2900         14551.000      34.496
   2.3900         17936.000      39.737
   2.4900         21948.000      42.720
   2.5900         25710.000      45.924
   2.6900         29473.000      49.739
   2.7900         32569.000      52.000
   2.8900         35198.000      53.451
   2.9900         38164.000      56.471
   3.0900         41304.000      58.506
   3.1900         43912.000      60.448
   3.2900         45732.000      62.225
   3.3900         45999.000      62.498
   3.4900         45421.000      61.368
   3.5900         44697.000      60.745
   3.6900         44279.000      60.125
   3.7900         43808.000      60.663
   3.8900         42662.000      59.296
   3.9900         43774.000      60.465
   4.0900         43582.000      60.316
   4.1900         43663.000      60.556
   4.2900         43842.000      60.191
   4.3900         44499.000      61.319
   4.4900         45613.000      61.952
   4.5900         47146.000      63.522
   4.6900         49156.000      64.187
   4.7900         50744.000      66.543
   4.8900         52457.000      66.363
   4.9900         53881.000      67.823
   5.0900         56072.000      68.022
   5.1900         58235.000      69.757
   5.2900         59253.000      70.200
   5.3900         61910.000      71.840
   5.4900         63555.000      73.137
   5.5900         64630.000      73.614
   5.6900         66231.000      73.939
   5.7900         67687.000      74.445
   5.8900         69753.000      75.987
   5.9900         70652.000      76.368
   6.0900         71001.000      76.138
   6.1900         70907.000      77.013
   6.2900         70702.000      76.662
   6.3900         70495.000      76.714
   6.4900         70621.000      77.460
   6.5900         70365.000      75.750
   6.6900         69394.000      76.387
   6.7900         69727.000      76.916
   6.8900         69106.000      76.033
   6.9900         69076.000      76.387
   7.0900         68235.000      76.629
   7.1900         67176.000      74.236
   7.2900         67119.000      74.095
   7.3900         66296.000      73.777
   7.4900         65871.000      74.451
   7.5900         64818.000      73.641
   7.6900         64333.000      72.533
   7.7900         63570.000      72.986
   7.8900         62706.000      73.096
   7.9900         61405.000      72.574
   8.0900         60648.000      71.463
   8.1900         60302.000      71.028
   8.2900         59180.000      70.000
   8.3900         58523.000      70.986
   8.4900         57703.000      69.750
   8.5900         56594.000      69.036
   8.6900         56309.000      69.785
   8.7900         55309.000      69.477
   8.8900         54541.000      66.940
   8.9900         53744.000      66.723
   9.0900         53031.000      67.082
   9.1900         52001.000      66.136
   9.2900         51452.000      66.400
   9.3900         50774.000      65.115
   9.4900         50146.000      65.605
   9.5900         48942.000      63.522
   9.6900         47888.000      63.867
   9.7900         46714.000      62.554
   9.8900         46321.000      62.666
   9.9900         45492.000      62.474
  10.0900         44534.000      60.605
  10.1900         43712.000      60.902
  10.2900         42434.000      59.858
  10.3900         42119.000      59.816
  10.4900         41321.000      59.657
  10.5900         40652.000      57.420
  10.6900         40579.000      58.609
  10.7900         39872.000      57.801
  10.8900         39709.000      58.318
  10.9900         39026.000      56.903
  11.0900         38937.000      57.297
  11.1900         38889.000      57.289
  11.2900         39012.000      57.697
  11.3900         38779.000      56.569
  11.4900         38275.000      57.420
  11.5900         38504.000      56.868
  11.6900         38845.000      56.939
  11.7900         38853.000      56.807
  11.8900         38742.000      57.446
  11.9900         38873.000      56.912
  12.0900         38134.000      56.851
  12.1900         38283.000      56.982
  12.2900         38677.000      57.053
  12.3900         38443.000      57.193
  12.4900         38341.000      57.201
  12.5900         38214.000      56.701
  12.6900         38114.000      56.947
  12.7900         38602.000      56.657
  12.8900         37930.000      56.569
  12.9900         38021.000      56.956
  13.0900         38123.000      55.955
  13.1900         38345.000      57.385
  13.2900         38107.000      56.391
  13.3900         38192.000      55.776
  13.4900         37874.000      56.727
  13.5900         37884.000      56.383
  13.6900         38150.000      56.409
  13.7900         37922.000      56.912
  13.8900         38228.000      57.559
  13.9900         38156.000      56.868
  14.0900         37980.000      56.294
  14.1900         37781.000      56.062
  14.2900         38008.000      56.418
  14.3900         37973.000      56.974
  14.4900         38133.000      56.789
  14.5900         37988.000      55.489
  14.6900         37853.000      56.285
  14.7900         38019.000      55.937
  14.8900         37895.000      56.630
  14.9900         37929.000      56.586
  15.0900         37822.000      56.321
  15.1900         37986.000      56.009
  15.2900         39134.000      58.009
  15.3900         39411.000      58.241
  15.4900         39506.000      57.454
  15.5900         38967.000      56.833
  15.6900         38687.000      57.263
  15.7900         38247.000      56.160
  15.8900         37877.000      56.178
  15.9900         37638.000      55.866
  16.0900         38115.000      57.184
  16.1900         38012.000      55.884
  16.2900         37802.000      56.471
  16.3900         38133.000      56.630
  16.4900         38014.000      56.763
  16.5900         37658.000      56.895
  16.6900         37961.000      56.134
  16.7900         37718.000      56.143
  16.8900         37900.000      56.134
  16.9900         37847.000      56.683
  17.0900         37639.000      55.660
  17.1900         37777.000      56.134
  17.2900         37570.000      55.082
  17.3900         37841.000      56.471
  17.4900         37792.000      56.400
  17.5900         37982.000      56.285
  17.6900         37926.000      56.736
  17.7900         37895.000      56.241
  17.8900         38253.000      56.939
  17.9900         37883.000      56.427
  18.0900         38232.000      56.196
  18.1900         37965.000      56.009
  18.2900         37747.000      56.798
  18.3900         37912.000      56.258
  18.4900         38105.000      56.241
  18.5900         37886.000      55.624
  18.6900         37977.000      56.462
  18.7900         37960.000      57.437
  18.8900         37775.000      55.705
  18.9900         37895.000      56.365
  19.0900         37793.000      56.409
  19.1900         37861.000      56.965
  19.2900         38043.000      56.533
  19.3900         37400.000      56.639
  19.4900         37793.000      56.187
  19.5900         37801.000      56.807
  19.6900         37739.000      57.193
  19.7900         38043.000      55.911
  19.8900         37945.000      55.848
  19.9900         37682.000      55.597
  20.0900         37728.000      55.830
  20.1900         38010.000      56.347
  20.2900         37970.000      56.445
  20.3900         37837.000      56.701
  20.4900         38282.000      56.454
  20.5900         37962.000      56.436
  20.6900         38429.000      57.472
  20.7900         38400.000      56.930
  20.8900         38037.000      56.383
  20.9900         38145.000      56.507
  21.0900         37998.000      56.657
  21.1900         37869.000      56.160
  21.2900         37631.000      56.205
  21.3900         37911.000      55.588
  21.4900         38309.000      56.613
  21.5900         38301.000      56.666
  21.6900         38195.000      57.088
  21.7900         37840.000      56.991
  21.8900         38187.000      56.107
  21.9900         37880.000      56.027
  22.0900         37946.000      56.524
  22.1900         37580.000      55.399
  22.2900         38076.000      57.088
  22.3900         37594.000      55.812
  22.4900         38013.000      56.098
  22.5900         37732.000      56.657
  22.6900         38386.000      56.427
  22.7900         37451.000      56.719
  22.8900         37816.000      55.991
  22.9900         38249.000      56.471
  23.0900         37676.000      56.480
  23.1900         37652.000      55.866
  23.2900         37978.000      56.859
  23.3900         37975.000      55.785
  23.4900         38073.000      55.991
  23.5900         38140.000      56.365
  23.6900         37711.000      55.794
  23.7900         37838.000      55.929
  23.8900         38367.000      57.550
  23.9900         38631.000      56.815
  24.0900         38173.000      56.383
  24.1900         38313.000      55.920
  24.2900         38108.000      56.321
  24.3900         37854.000      56.877
  24.4900         37766.000      55.740
  24.5900         38137.000      56.824
  24.6900         37960.000      56.921
  24.7900         37744.000      56.338
  24.8900         37661.000      56.454
  24.9900         37742.000      55.991
  25.0900         37580.000      56.675
  25.1900         37915.000      56.842
  25.2900         37648.000      56.365
  25.3900         38759.000      56.991
  25.4900         38663.000      57.533
  25.5900         38411.000      57.315
  25.6900         38048.000      56.347
  25.7900         37895.000      56.666
  25.8900         37833.000      56.736
  25.9900         38005.000      56.241
  26.0900         37853.000      56.071
  26.1900         38214.000      56.604
  26.2900         38169.000      57.149
  26.3900         37813.000      56.577
  26.4900         37932.000      56.859
  26.5900         38080.000      56.622
  26.6900         38032.000      56.798
  26.7900         38161.000      55.435
  26.8900         37928.000      57.088
  26.9900         37877.000      57.463
  27.0900         37986.000      56.780
  27.1900         38066.000      55.660
  27.2900         38024.000      56.009
  27.3900         38240.000      56.338
  27.4900         38248.000      57.524
  27.5900         37957.000      57.324
  27.6900         38146.000      55.911
  27.7900         38067.000      55.417
  27.8900         37989.000      57.367
  27.9900         38260.000      57.437
  28.0900         38045.000      56.391
  28.1900         37890.000      56.409
  28.2900         37654.000      56.205
  28.3900         37959.000      56.666
  28.4900         37860.000      56.982
  28.5900         38032.000      55.534
  28.6900         38215.000      56.648
  28.7900         38224.000      56.701
  28.8900         38514.000      56.045
  28.9900         38362.000      56.080
  29.0900         37859.000      56.214
  29.1900         38094.000      56.223
  29.2900         38294.000      57.402
  29.3900         38202.000      56.824
  29.4900         37956.000      56.241
  29.5900         37904.000      56.710
  29.6900         38306.000      56.771
  29.7900         38396.000      56.965
  29.8900         39545.000      56.965
  29.9900         39515.000      56.780
  30.0900         39333.000      57.446
  30.1900         38560.000      57.819
  30.2900         38137.000      56.577
  30.3900         38291.000      56.356
  30.4900         38157.000      56.551
  30.5900         38461.000      56.241
  30.6900         38632.000      56.859
  30.7900         39183.000      57.315
  30.8900         40347.000      58.000
  30.9900         44947.000      62.113
  31.0900         58996.000      70.064
  31.1900         84924.000      84.540
  31.2900        108950.000      95.315
  31.3900        110092.000      95.875
  31.4900         88718.000      85.088
  31.5900         61140.000      71.281
  31.6900         45223.000      61.237
  31.7900         39804.000      57.454
  31.8900         39090.000      57.044
  31.9900         38921.000      57.297
  32.0900         38468.000      56.445
  32.1900         38398.000      56.542
  32.2900         38466.000      56.542
  32.3900         38585.000      56.507
  32.4900         38531.000      56.622
  32.5900         38542.000      58.361
  32.6900         38052.000      57.263
  32.7900         38291.000      56.249
  32.8900         38378.000      56.780
  32.9900         38258.000      56.675
  33.0900         38141.000      56.710
  33.1900         37937.000      56.383
  33.2900         38341.000      56.982
  33.3900         38014.000      56.877
  33.4900         38030.000      56.054
  33.5900         38434.000      57.896
  33.6900         37931.000      56.577
  33.7900         38363.000      56.780
  33.8900         38443.000      56.701
  33.9900         38101.000      56.223
  34.0900         38890.000      56.223
  34.1900         39640.000      57.793
  34.2900         39108.000      57.541
  34.3900         38284.000      55.245
  34.4900         38332.000      56.178
  34.5900         38047.000      56.303
  34.6900         38164.000      56.921
  34.7900         38198.000      56.754
  34.8900         37888.000      56.321
  34.9900         38032.000      55.696
  35.0900         37995.000      57.009
  35.1900         37627.000      55.749
  35.2900         37686.000      56.071
  35.3900         37784.000      56.939
  35.4900         37476.000      56.771
  35.5900         37754.000      57.131
  35.6900         37959.000      56.187
  35.7900         38027.000      56.956
  35.8900         37777.000      56.080
  35.9900         38155.000      57.079
  36.0900         39175.000      57.245
  36.1900         42140.000      59.691
  36.2900         48033.000      63.419
  36.3900         49309.000      64.288
  36.4900         45281.000      61.749
  36.5900         40478.000      58.344
  36.6900         38547.000      56.125
  36.7900         37955.000      57.000
  36.8900         37722.000      55.480
  36.9900         38065.000      56.249
  37.0900         38020.000      56.666
  37.1900         37817.000      57.446
  37.2900         37770.000      55.929
  37.3900         37970.000      56.116
  37.4900         37755.000      56.098
  37.5900         37887.000      56.982
  37.6900         37443.000      56.771
  37.7900         37757.000      56.912
  37.8900         37771.000      56.196
  37.9900         37717.000      56.560
  38.0900         37380.000      55.821
  38.1900         37543.000      55.973
  38.2900         37744.000      56.232
  38.3900         37677.000      56.071
  38.4900         37633.000      56.789
  38.5900         37203.000      55.911
  38.6900         37266.000      55.660
  38.7900         37256.000      56.454
  38.8900         37472.000      56.160
  38.9900         36925.000      55.615
  39.0900         37256.000      56.187
  39.1900         37270.000      55.920
  39.2900         37501.000      57.114
  39.3900         37773.000      56.745
  39.4900         37738.000      56.116
  39.5900         37723.000      57.166
  39.6900         38416.000      58.215
  39.7900         38521.000      55.687
  39.8900         38358.000      56.134
  39.9900         37578.000      56.613
  40.0900         37349.000      55.561
  40.1900         38020.000      56.125
  40.2900         37685.000      55.245
  40.3900         37814.000      56.542
  40.4900         37259.000      55.308
  40.5900         37893.000      56.303
  40.6900         37155.000      55.507
  40.7900         37971.000      56.169
  40.8900         37347.000      55.678
  40.9900         37360.000      55.642
  41.0900         37035.000      55.227
  41.1900         36952.000      56.089
  41.2900         37404.000      56.036
  41.3900         37123.000      55.687
  41.4900         37569.000      55.875
  41.5900         37011.000      56.018
  41.6900         37164.000      56.533
  41.7900         37333.000      54.918
  41.8900         37404.000      55.911
  41.9900         37165.000      55.009
  42.0900         37044.000      55.227
  42.1900         37320.000      55.714
  42.2900         37149.000      56.143
  42.3900         37351.000      56.391
  42.4900         36984.000      55.281
  42.5900         37312.000      55.839
  42.6900         37278.000      56.622
  42.7900         37253.000      57.061
  42.8900         37140.000      55.749
  42.9900         37560.000      56.480
  43.0900         37345.000      55.299
  43.1900         37023.000      56.178
  43.2900         36924.000      55.830
  43.3900         37309.000      56.000
  43.4900         37129.000      55.973
  43.5900         37351.000      55.785
  43.6900         37239.000      56.595
  43.7900         37075.000      56.143
  43.8900         37114.000      56.232
  43.9900         37226.000      56.542
  44.0900         37242.000      55.109
  44.1900         37362.000      55.651
  44.2900         36852.000      56.232
  44.3900         37390.000      56.134
  44.4900         37376.000      55.498
  44.5900         37400.000      55.498
  44.6900         37286.000      56.445
  44.7900         37285.000      55.902
  44.8900         37077.000      55.642
  44.9900         37113.000      56.683
  45.0900         37375.000      55.794
  45.1900         36975.000      55.991
  45.2900         37053.000      55.498
  45.3900         37148.000      55.127
  45.4900         37227.000      56.089
  45.5900         37196.000      55.821
  45.6900         37378.000      56.648
  45.7900         37348.000      56.586
  45.8900         37469.000      56.507
  45.9900         37084.000      56.187
  46.0900         37225.000      56.062
  46.1900         37218.000      56.604
  46.2900         37342.000      55.848
  46.3900         37177.000      56.498
  46.4900         37558.000      56.745
  46.5900         37042.000      55.839
  46.6900         37123.000      56.178
  46.7900         37766.000      56.480
  46.8900         36874.000      56.205
  46.9900         37259.000      56.071
  47.0900         37408.000      56.374
  47.1900         37350.000      56.683
  47.2900         37244.000      55.911
  47.3900         37166.000      56.214
  47.4900         37641.000      56.692
  47.5900         38010.000      56.560
  47.6900         40301.000      57.385
  47.7900         41960.000      58.881
  47.8900         42188.000      60.175
  47.9900         40442.000      58.189
  48.0900         38654.000      56.710
  48.1900         37420.000      55.444
  48.2900         37425.000      55.651
  48.3900         37549.000      55.399
  48.4900         37598.000      56.009
  48.5900         37470.000      55.480
  48.6900         37143.000      55.561
