XYDATA SparksLave Co3O4-quenched_900_1.5K 
INTER        1       1       0     0.100000
TEMP       1.66630      1.66920      1.50000
! d1b Date 14-Nov-11 Time 14:21:37 Run 129961 129948>129961
! d1b Date 14-Nov-11 Time 14:21:37 Run 129961 129948>129961
! Monitor/counts, Counting time/sec:  1.26942e+007 1.26942e+007
   0.7900             3.000       1.000
   0.8900             5.000       1.000
   0.9900          2313.000      12.649
   1.0900          2178.000      13.000
   1.1900          2083.000      12.207
   1.2900          2205.000      12.767
   1.3900          2235.000      12.207
   1.4900          2228.000      12.450
   1.5900          2306.000      13.416
   1.6900          2319.000      13.892
   1.7900          2946.000      14.832
   1.8900          4657.000      17.720
   1.9900          7688.000      23.130
   2.0900         10507.000      27.423
   2.1900         13490.000      31.686
   2.2900         16462.000      34.453
   2.3900         21089.000      39.281
   2.4900         25747.000      43.370
   2.5900         30307.000      45.651
   2.6900         34684.000      49.396
   2.7900         38187.000      52.962
   2.8900         41702.000      55.009
   2.9900         44941.000      57.454
   3.0900         47934.000      59.220
   3.1900         51493.000      60.787
   3.2900         53416.000      61.506
   3.3900         53834.000      61.262
   3.4900         53292.000      61.725
   3.5900         52934.000      61.074
   3.6900         51787.000      60.200
   3.7900         51617.000      61.016
   3.8900         51691.000      60.349
   3.9900         49176.000      58.941
   4.0900         50296.000      59.557
   4.1900         50641.000      60.737
   4.2900         50815.000      60.448
   4.3900         52216.000      61.563
   4.4900         52802.000      61.490
   4.5900         54232.000      62.554
   4.6900         55715.000      62.258
   4.7900         57288.000      63.640
   4.8900         58814.000      65.169
   4.9900         60459.000      65.460
   5.0900         62135.000      66.445
   5.1900         63708.000      67.639
   5.2900         64851.000      67.209
   5.3900         67027.000      69.195
   5.4900         68394.000      69.520
   5.5900         70684.000      71.106
   5.6900         71449.000      71.056
   5.7900         72638.000      71.715
   5.8900         74888.000      73.389
   5.9900         74815.000      72.966
   6.0900         75737.000      73.451
   6.1900         75938.000      73.675
   6.2900         75741.000      73.110
   6.3900         75883.000      72.966
   6.4900         75833.000      73.041
   6.5900         75165.000      73.055
   6.6900         75078.000      74.027
   6.7900         74478.000      72.519
   6.8900         73769.000      73.294
   6.9900         73594.000      72.319
   7.0900         72999.000      73.034
   7.1900         71609.000      71.302
   7.2900         71386.000      70.661
   7.3900         70499.000      71.393
   7.4900         69928.000      70.908
   7.5900         68989.000      70.534
   7.6900         67540.000      69.217
   7.7900         67203.000      68.862
   7.8900         65749.000      68.206
   7.9900         65279.000      68.746
   8.0900         63881.000      67.594
   8.1900         63319.000      68.213
   8.2900         62782.000      66.933
   8.3900         61295.000      66.626
   8.4900         60352.000      65.353
   8.5900         59884.000      64.537
   8.6900         58406.000      64.498
   8.7900         57690.000      64.452
   8.8900         56260.000      63.992
   8.9900         55607.000      63.427
   9.0900         54944.000      63.222
   9.1900         53846.000      61.335
   9.2900         52942.000      62.258
   9.3900         52480.000      61.522
   9.4900         51115.000      60.200
   9.5900         50270.000      60.075
   9.6900         49112.000      59.599
   9.7900         47802.000      59.228
   9.8900         47379.000      58.395
   9.9900         46191.000      57.732
  10.0900         45342.000      56.613
  10.1900         44755.000      56.321
  10.2900         43830.000      56.701
  10.3900         42599.000      54.845
  10.4900         42117.000      54.553
  10.5900         41153.000      54.544
  10.6900         40462.000      53.188
  10.7900         40216.000      53.572
  10.8900         39709.000      53.666
  10.9900         39802.000      53.917
  11.0900         39001.000      52.934
  11.1900         39116.000      52.981
  11.2900         38837.000      52.868
  11.3900         38726.000      53.245
  11.4900         38761.000      52.460
  11.5900         38972.000      53.320
  11.6900         39362.000      53.198
  11.7900         39123.000      53.028
  11.8900         39150.000      52.460
  11.9900         39069.000      53.188
  12.0900         38944.000      52.915
  12.1900         38618.000      52.745
  12.2900         38858.000      52.820
  12.3900         38370.000      52.583
  12.4900         38334.000      52.048
  12.5900         38624.000      52.583
  12.6900         38403.000      52.335
  12.7900         38596.000      53.432
  12.8900         38654.000      53.085
  12.9900         38635.000      53.963
  13.0900         38146.000      52.536
  13.1900         38457.000      51.923
  13.2900         38341.000      52.811
  13.3900         38763.000      53.217
  13.4900         38371.000      52.915
  13.5900         38585.000      53.367
  13.6900         38210.000      52.173
  13.7900         38477.000      53.160
  13.8900         38311.000      51.923
  13.9900         38545.000      52.934
  14.0900         38378.000      52.631
  14.1900         38556.000      53.395
  14.2900         38266.000      52.783
  14.3900         38385.000      51.933
  14.4900         38459.000      52.735
  14.5900         38537.000      53.348
  14.6900         38401.000      52.981
  14.7900         38388.000      52.962
  14.8900         38366.000      52.650
  14.9900         38131.000      52.086
  15.0900         38686.000      53.028
  15.1900         38739.000      52.488
  15.2900         40378.000      53.759
  15.3900         42049.000      54.608
  15.4900         42597.000      54.882
  15.5900         41223.000      54.599
  15.6900         40278.000      54.617
  15.7900         38969.000      51.643
  15.8900         38686.000      52.915
  15.9900         38866.000      52.849
  16.0900         38746.000      52.010
  16.1900         38716.000      53.009
  16.2900         38637.000      52.230
  16.3900         38781.000      52.555
  16.4900         38532.000      52.374
  16.5900         38448.000      52.716
  16.6900         38936.000      52.887
  16.7900         38568.000      52.450
  16.8900         38535.000      51.400
  16.9900         38624.000      52.096
  17.0900         38475.000      52.583
  17.1900         38696.000      52.830
  17.2900         38499.000      52.364
  17.3900         38475.000      52.086
  17.4900         38607.000      53.057
  17.5900         39037.000      53.292
  17.6900         39167.000      52.792
  17.7900         40076.000      52.849
  17.8900         40949.000      54.772
  17.9900         40874.000      53.954
  18.0900         40050.000      54.120
  18.1900         38894.000      53.085
  18.2900         39017.000      52.906
  18.3900         39016.000      53.170
  18.4900         38673.000      53.310
  18.5900         39081.000      52.545
  18.6900         38784.000      52.479
  18.7900         39450.000      53.432
  18.8900         39119.000      53.245
  18.9900         38648.000      52.297
  19.0900         38978.000      52.402
  19.1900         38593.000      52.335
  19.2900         39009.000      52.659
  19.3900         38744.000      52.583
  19.4900         38634.000      53.226
  19.5900         38894.000      51.942
  19.6900         39014.000      51.701
  19.7900         39031.000      52.943
  19.8900         39162.000      53.470
  19.9900         39087.000      52.981
  20.0900         39077.000      52.849
  20.1900         39150.000      52.115
  20.2900         39123.000      53.028
  20.3900         38604.000      52.345
  20.4900         39514.000      53.488
  20.5900         39264.000      52.839
  20.6900         39531.000      52.972
  20.7900         39939.000      52.858
  20.8900         39466.000      53.104
  20.9900         39372.000      53.582
  21.0900         39524.000      53.019
  21.1900         39632.000      53.301
  21.2900         38854.000      52.583
  21.3900         39237.000      53.357
  21.4900         39298.000      52.545
  21.5900         39290.000      52.650
  21.6900         39159.000      53.235
  21.7900         39320.000      53.273
  21.8900         39625.000      52.915
  21.9900         39678.000      53.470
  22.0900         39458.000      53.516
  22.1900         39131.000      52.906
  22.2900         39084.000      53.198
  22.3900         39075.000      52.915
  22.4900         39253.000      52.583
  22.5900         39590.000      52.650
  22.6900         39401.000      53.151
  22.7900         39343.000      53.507
  22.8900         39768.000      54.139
  22.9900         39368.000      52.355
  23.0900         39584.000      53.684
  23.1900         39373.000      54.470
  23.2900         39425.000      52.393
  23.3900         39449.000      53.432
  23.4900         39618.000      53.488
  23.5900         39353.000      52.962
  23.6900         39397.000      53.217
  23.7900         39933.000      53.019
  23.8900         40185.000      53.273
  23.9900         40265.000      53.038
  24.0900         40104.000      53.535
  24.1900         39601.000      53.038
  24.2900         39530.000      53.479
  24.3900         39469.000      53.917
  24.4900         39667.000      53.254
  24.5900         39897.000      52.991
  24.6900         39172.000      53.188
  24.7900         39432.000      53.814
  24.8900         39892.000      52.802
  24.9900         39766.000      53.572
  25.0900         39695.000      53.796
  25.1900         39957.000      53.526
  25.2900         39849.000      53.301
  25.3900         40706.000      53.814
  25.4900         40929.000      54.185
  25.5900         40715.000      54.000
  25.6900         40460.000      53.991
  25.7900         40322.000      53.805
  25.8900         40068.000      53.759
  25.9900         39748.000      53.329
  26.0900         39892.000      53.647
  26.1900         40544.000      53.600
  26.2900         39979.000      54.305
  26.3900         40141.000      53.047
  26.4900         40424.000      54.009
  26.5900         40179.000      53.610
  26.6900         40152.000      54.102
  26.7900         39942.000      53.179
  26.8900         40564.000      53.619
  26.9900         40154.000      53.104
  27.0900         40279.000      53.591
  27.1900         40081.000      53.009
  27.2900         40700.000      54.148
  27.3900         40242.000      53.898
  27.4900         40654.000      53.694
  27.5900         40532.000      53.526
  27.6900         40423.000      54.083
  27.7900         40650.000      54.936
  27.8900         40131.000      53.085
  27.9900         40601.000      54.222
  28.0900         40394.000      53.198
  28.1900         40792.000      53.488
  28.2900         40793.000      55.064
  28.3900         40718.000      54.157
  28.4900         40894.000      55.290
  28.5900         40714.000      53.759
  28.6900         40686.000      53.787
  28.7900         41172.000      54.498
  28.8900         40918.000      53.889
  28.9900         41090.000      54.120
  29.0900         41274.000      54.955
  29.1900         40845.000      53.656
  29.2900         40896.000      53.981
  29.3900         41049.000      53.991
  29.4900         40720.000      53.926
  29.5900         40922.000      55.911
  29.6900         41344.000      54.763
  29.7900         41843.000      55.507
  29.8900         43347.000      55.579
  29.9900         44009.000      57.044
  30.0900         43682.000      55.516
  30.1900         42097.000      55.615
  30.2900         41958.000      54.111
  30.3900         41853.000      54.617
  30.4900         42148.000      55.218
  30.5900         42273.000      55.606
  30.6900         43071.000      55.758
  30.7900         43368.000      56.107
  30.8900         45789.000      57.236
  30.9900         53801.000      62.594
  31.0900         81332.000      77.389
  31.1900        136434.000      99.096
  31.2900        191358.000     117.452
  31.3900        210855.000     123.252
  31.4900        173413.000     111.167
  31.5900        110673.000      89.577
  31.6900         66141.000      68.666
  31.7900         48655.000      59.144
  31.8900         43819.000      56.604
  31.9900         43015.000      55.498
  32.0900         42801.000      56.249
  32.1900         42539.000      55.408
  32.2900         42234.000      54.973
  32.3900         41939.000      55.045
  32.4900         42227.000      54.553
  32.5900         41710.000      54.717
  32.6900         41672.000      54.909
  32.7900         41682.000      54.809
  32.8900         41608.000      54.111
  32.9900         41923.000      54.918
  33.0900         41521.000      54.918
  33.1900         41841.000      55.091
  33.2900         41625.000      54.845
  33.3900         41121.000      53.357
  33.4900         41335.000      54.754
  33.5900         41122.000      54.525
  33.6900         41465.000      54.139
  33.7900         41415.000      54.351
  33.8900         41751.000      54.818
  33.9900         41529.000      54.681
  34.0900         42102.000      54.332
  34.1900         42689.000      55.009
  34.2900         42409.000      55.723
  34.3900         41917.000      54.415
  34.4900         41893.000      55.516
  34.5900         41600.000      54.727
  34.6900         41396.000      54.305
  34.7900         41202.000      55.027
  34.8900         41411.000      53.628
  34.9900         41203.000      54.927
  35.0900         41376.000      55.453
  35.1900         41716.000      54.277
  35.2900         41613.000      54.599
  35.3900         41548.000      54.736
  35.4900         41773.000      54.663
  35.5900         42076.000      54.498
  35.6900         42204.000      54.800
  35.7900         42215.000      54.690
  35.8900         43557.000      56.956
  35.9900         48037.000      59.473
  36.0900         61034.000      67.246
  36.1900         87017.000      77.942
  36.2900        115495.000      91.575
  36.3900        129402.000      96.706
  36.4900        118644.000      92.016
  36.5900         89441.000      79.768
  36.6900         61842.000      66.813
  36.7900         47888.000      58.009
  36.8900         43359.000      55.018
  36.9900         42658.000      54.818
  37.0900         42113.000      54.791
  37.1900         41542.000      55.127
  37.2900         41277.000      54.148
  37.3900         41706.000      54.268
  37.4900         41424.000      54.433
  37.5900         41324.000      54.544
  37.6900         40891.000      54.397
  37.7900         41412.000      53.638
  37.8900         41159.000      54.415
  37.9900         40680.000      54.222
  38.0900         40674.000      54.452
  38.1900         40898.000      53.619
  38.2900         40932.000      54.653
  38.3900         40718.000      53.879
  38.4900         40612.000      54.176
  38.5900         40771.000      54.286
  38.6900         40397.000      53.235
  38.7900         40716.000      54.222
  38.8900         40675.000      53.563
  38.9900         40218.000      54.157
  39.0900         40483.000      54.074
  39.1900         40814.000      54.507
  39.2900         40826.000      54.185
  39.3900         40265.000      53.113
  39.4900         40901.000      54.019
  39.5900         41093.000      54.000
  39.6900         41414.000      54.470
  39.7900         42121.000      55.353
  39.8900         41916.000      54.489
  39.9900         41105.000      54.305
  40.0900         40822.000      53.554
  40.1900         40300.000      53.019
  40.2900         40576.000      54.046
  40.3900         41166.000      53.684
  40.4900         40598.000      54.378
  40.5900         40716.000      53.879
  40.6900         40697.000      53.544
  40.7900         41017.000      54.918
  40.8900         41199.000      53.740
  40.9900         40795.000      54.231
  41.0900         39919.000      53.226
  41.1900         39848.000      53.731
  41.2900         40372.000      54.635
  41.3900         40310.000      53.814
  41.4900         40283.000      54.129
  41.5900         40120.000      53.852
  41.6900         40107.000      52.943
  41.7900         40400.000      53.217
  41.8900         40209.000      54.507
  41.9900         39825.000      53.348
  42.0900         40066.000      53.749
  42.1900         40607.000      53.935
  42.2900         40341.000      53.675
  42.3900         40244.000      53.842
  42.4900         40012.000      53.329
  42.5900         40128.000      53.348
  42.6900         40174.000      53.712
  42.7900         40444.000      53.749
  42.8900         40225.000      53.516
  42.9900         40032.000      54.065
  43.0900         39913.000      53.348
  43.1900         39689.000      52.678
  43.2900         40051.000      53.759
  43.3900         40154.000      53.235
  43.4900         39585.000      52.868
  43.5900         39891.000      53.151
  43.6900         40535.000      53.075
  43.7900         39955.000      53.935
  43.8900         39932.000      53.963
  43.9900         40208.000      53.879
  44.0900         40128.000      53.805
  44.1900         39986.000      54.139
  44.2900         39839.000      53.944
  44.3900         40157.000      54.268
  44.4900         40572.000      53.600
  44.5900         40020.000      53.582
  44.6900         39815.000      53.907
  44.7900         39876.000      54.231
  44.8900         39926.000      53.610
  44.9900         40375.000      53.638
  45.0900         40409.000      54.046
  45.1900         40479.000      54.074
  45.2900         39557.000      53.749
  45.3900         39906.000      52.716
  45.4900         39807.000      53.432
  45.5900         40054.000      53.516
  45.6900         39732.000      53.907
  45.7900         40666.000      54.461
  45.8900         39866.000      53.479
  45.9900         39883.000      53.470
  46.0900         39636.000      53.935
  46.1900         40145.000      53.749
  46.2900         39997.000      53.666
  46.3900         40117.000      52.962
  46.4900         39937.000      52.981
  46.5900         39878.000      53.703
  46.6900         39811.000      53.413
  46.7900         40193.000      53.898
  46.8900         39971.000      52.583
  46.9900         40287.000      53.861
  47.0900         39862.000      53.094
  47.1900         39733.000      52.868
  47.2900         40056.000      53.749
  47.3900         40137.000      55.172
  47.4900         40395.000      53.132
  47.5900         40622.000      54.065
  47.6900         42476.000      54.854
  47.7900         45560.000      56.886
  47.8900         46413.000      56.710
  47.9900         45116.000      56.851
  48.0900         42296.000      54.498
  48.1900         40452.000      54.046
  48.2900         39916.000      53.535
  48.3900         40022.000      53.600
  48.4900         39621.000      53.694
  48.5900         39833.000      54.111
