XYDATA SparksLave Co-quenched_RT_300K 
INTER        1       1       0     0.100000
TEMP       306.427      303.891      300.000
! d1b Date 15-Nov-11 Time 11:30:15 Run 130033 130022>130033
! d1b Date 15-Nov-11 Time 11:30:15 Run 130033 130022>130033
! Monitor/counts, Counting time/sec:  1.08851e+007 1.08851e+007
   0.7900             7.000       1.000
   0.8900             4.000       1.000
   0.9900          2171.000      13.038
   1.0900          2074.000      12.288
   1.1900          2063.000      13.342
   1.2900          2039.000      14.000
   1.3900          2065.000      13.077
   1.4900          2013.000      11.705
   1.5900          2098.000      13.820
   1.6900          2225.000      13.304
   1.7900          2752.000      14.933
   1.8900          4225.000      18.385
   1.9900          6725.000      24.228
   2.0900          9187.000      28.302
   2.1900         11434.000      30.216
   2.2900         14362.000      34.785
   2.3900         18304.000      38.987
   2.4900         22344.000      42.907
   2.5900         26095.000      46.476
   2.6900         29631.000      49.346
   2.7900         32861.000      52.612
   2.8900         35370.000      54.406
   2.9900         38376.000      56.294
   3.0900         41237.000      58.241
   3.1900         44030.000      60.564
   3.2900         46231.000      61.741
   3.3900         46080.000      61.863
   3.4900         45414.000      62.434
   3.5900         45430.000      61.286
   3.6900         44414.000      60.671
   3.7900         44197.000      61.188
   3.8900         43818.000      61.000
   3.9900         43260.000      59.405
   4.0900         43518.000      59.624
   4.1900         43609.000      60.415
   4.2900         43701.000      60.266
   4.3900         44984.000      60.869
   4.4900         46981.000      62.081
   4.5900         49760.000      64.265
   4.6900         53767.000      66.738
   4.7900         57277.000      69.123
   4.8900         60796.000      70.682
   4.9900         64319.000      73.287
   5.0900         67175.000      74.283
   5.1900         70465.000      77.272
   5.2900         73367.000      78.218
   5.3900         76227.000      79.561
   5.4900         79064.000      81.431
   5.5900         80696.000      81.646
   5.6900         83996.000      84.475
   5.7900         85016.000      84.433
   5.8900         86672.000      84.599
   5.9900         87475.000      85.610
   6.0900         87544.000      85.112
   6.1900         85849.000      84.113
   6.2900         86217.000      85.458
   6.3900         84337.000      83.487
   6.4900         84763.000      84.024
   6.5900         83856.000      84.167
   6.6900         82447.000      83.162
   6.7900         81722.000      82.012
   6.8900         80894.000      81.988
   6.9900         80035.000      82.024
   7.0900         79078.000      81.799
   7.1900         77736.000      80.281
   7.2900         77168.000      79.586
   7.3900         76573.000      79.246
   7.4900         75702.000      79.944
   7.5900         74278.000      79.618
   7.6900         73128.000      78.269
   7.7900         72686.000      78.447
   7.8900         71138.000      76.590
   7.9900         70174.000      76.609
   8.0900         68901.000      75.113
   8.1900         68607.000      75.888
   8.2900         67656.000      75.173
   8.3900         66668.000      74.020
   8.4900         66203.000      75.053
   8.5900         64825.000      73.389
   8.6900         63946.000      72.298
   8.7900         62896.000      72.897
   8.8900         61646.000      71.365
   8.9900         61153.000      72.360
   9.0900         59713.000      71.190
   9.1900         58614.000      70.328
   9.2900         57951.000      69.584
   9.3900         57100.000      68.191
   9.4900         56322.000      68.877
   9.5900         55177.000      68.491
   9.6900         54746.000      67.097
   9.7900         53482.000      66.182
   9.8900         52361.000      65.414
   9.9900         51960.000      66.219
  10.0900         50956.000      65.879
  10.1900         50147.000      63.804
  10.2900         49530.000      64.831
  10.3900         48725.000      63.945
  10.4900         47641.000      62.024
  10.5900         47413.000      63.166
  10.6900         46574.000      62.362
  10.7900         45949.000      62.129
  10.8900         45553.000      62.121
  10.9900         45124.000      61.205
  11.0900         45328.000      61.498
  11.1900         44869.000      61.514
  11.2900         45145.000      60.967
  11.3900         44333.000      60.399
  11.4900         44845.000      61.286
  11.5900         44435.000      60.490
  11.6900         43995.000      60.465
  11.7900         44314.000      60.885
  11.8900         44199.000      61.270
  11.9900         44520.000      60.175
  12.0900         44551.000      60.852
  12.1900         44305.000      60.902
  12.2900         44684.000      60.548
  12.3900         43871.000      60.191
  12.4900         44695.000      61.465
  12.5900         43781.000      60.432
  12.6900         44270.000      60.770
  12.7900         43945.000      61.008
  12.8900         43925.000      60.655
  12.9900         44241.000      61.474
  13.0900         43919.000      59.766
  13.1900         44059.000      61.530
  13.2900         44108.000      60.811
  13.3900         43735.000      60.000
  13.4900         43720.000      60.473
  13.5900         43746.000      59.858
  13.6900         43866.000      60.075
  13.7900         43925.000      60.564
  13.8900         43826.000      60.208
  13.9900         43898.000      59.833
  14.0900         44122.000      61.522
  14.1900         43896.000      60.332
  14.2900         43703.000      60.266
  14.3900         43969.000      60.934
  14.4900         43538.000      60.975
  14.5900         43518.000      60.000
  14.6900         43627.000      60.934
  14.7900         43882.000      60.490
  14.8900         43735.000      60.539
  14.9900         43924.000      60.316
  15.0900         43545.000      59.590
  15.1900         44058.000      60.448
  15.2900         43864.000      59.573
  15.3900         44545.000      61.033
  15.4900         44192.000      61.147
  15.5900         43922.000      60.893
  15.6900         43927.000      59.892
  15.7900         43999.000      60.374
  15.8900         43215.000      59.532
  15.9900         43840.000      60.506
  16.0900         43619.000      60.926
  16.1900         43370.000      61.098
  16.2900         43358.000      59.590
  16.3900         43397.000      60.523
  16.4900         43567.000      61.156
  16.5900         43564.000      60.514
  16.6900         43745.000      60.308
  16.7900         43647.000      59.791
  16.8900         43293.000      59.380
  16.9900         43227.000      60.357
  17.0900         43418.000      61.066
  17.1900         43432.000      59.892
  17.2900         43968.000      60.614
  17.3900         43703.000      60.166
  17.4900         43668.000      60.614
  17.5900         43639.000      60.787
  17.6900         43441.000      59.532
  17.7900         43463.000      60.100
  17.8900         43755.000      60.605
  17.9900         43879.000      60.877
  18.0900         43837.000      60.191
  18.1900         43747.000      59.724
  18.2900         44027.000      60.655
  18.3900         43679.000      60.737
  18.4900         43762.000      61.057
  18.5900         43256.000      60.249
  18.6900         43446.000      60.754
  18.7900         43748.000      60.033
  18.8900         43480.000      60.819
  18.9900         43997.000      60.967
  19.0900         43703.000      60.539
  19.1900         43342.000      60.638
  19.2900         43356.000      60.324
  19.3900         43742.000      60.067
  19.4900         43774.000      59.699
  19.5900         43402.000      60.481
  19.6900         43358.000      59.883
  19.7900         43327.000      60.967
  19.8900         43567.000      60.092
  19.9900         43366.000      59.958
  20.0900         43199.000      59.287
  20.1900         43259.000      60.233
  20.2900         43674.000      60.992
  20.3900         43172.000      60.216
  20.4900         43362.000      59.841
  20.5900         43480.000      59.800
  20.6900         43653.000      60.133
  20.7900         43495.000      60.671
  20.8900         43874.000      61.147
  20.9900         43571.000      60.754
  21.0900         43429.000      59.783
  21.1900         43385.000      60.249
  21.2900         43657.000      59.867
  21.3900         43565.000      59.800
  21.4900         43538.000      60.481
  21.5900         43305.000      59.791
  21.6900         43691.000      61.131
  21.7900         43386.000      60.274
  21.8900         43086.000      59.414
  21.9900         43330.000      59.975
  22.0900         43485.000      60.042
  22.1900         43713.000      60.778
  22.2900         43398.000      60.754
  22.3900         43583.000      60.075
  22.4900         43250.000      60.597
  22.5900         43354.000      60.092
  22.6900         43431.000      59.791
  22.7900         43332.000      60.133
  22.8900         42930.000      60.067
  22.9900         43564.000      59.624
  23.0900         43438.000      60.390
  23.1900         43094.000      59.447
  23.2900         43073.000      60.357
  23.3900         43775.000      60.622
  23.4900         43001.000      59.034
  23.5900         43391.000      59.858
  23.6900         43391.000      59.858
  23.7900         43633.000      61.033
  23.8900         43570.000      60.258
  23.9900         43742.000      60.092
  24.0900         43614.000      60.803
  24.1900         43973.000      60.225
  24.2900         43458.000      59.649
  24.3900         43319.000      60.630
  24.4900         42935.000      60.283
  24.5900         43383.000      60.042
  24.6900         43470.000      60.150
  24.7900         43526.000      60.448
  24.8900         43566.000      60.050
  24.9900         43364.000      60.117
  25.0900         43549.000      60.225
  25.1900         43528.000      59.607
  25.2900         43979.000      60.514
  25.3900         43588.000      60.308
  25.4900         43819.000      60.183
  25.5900         44063.000      60.811
  25.6900         43471.000      59.624
  25.7900         43651.000      61.139
  25.8900         43967.000      61.311
  25.9900         43740.000      60.572
  26.0900         43506.000      60.729
  26.1900         43685.000      59.682
  26.2900         43320.000      60.860
  26.3900         43649.000      60.100
  26.4900         43322.000      60.166
  26.5900         44159.000      61.000
  26.6900         43411.000      60.679
  26.7900         43226.000      59.456
  26.8900         43234.000      60.803
  26.9900         43345.000      60.984
  27.0900         43508.000      60.440
  27.1900         43700.000      60.647
  27.2900         43570.000      59.992
  27.3900         43667.000      59.925
  27.4900         43453.000      59.540
  27.5900         43549.000      60.374
  27.6900         43922.000      61.196
  27.7900         43504.000      60.374
  27.8900         43684.000      60.332
  27.9900         43596.000      60.589
  28.0900         43819.000      60.067
  28.1900         44076.000      60.671
  28.2900         43942.000      60.498
  28.3900         43894.000      60.597
  28.4900         43965.000      60.943
  28.5900         43401.000      60.225
  28.6900         43534.000      59.933
  28.7900         44062.000      59.975
  28.8900         44005.000      60.572
  28.9900         43807.000      60.324
  29.0900         43982.000      61.563
  29.1900         43987.000      60.473
  29.2900         43681.000      61.139
  29.3900         43936.000      60.622
  29.4900         44017.000      60.133
  29.5900         44483.000      60.860
  29.6900         44310.000      61.033
  29.7900         44552.000      60.514
  29.8900         44654.000      61.474
  29.9900         44289.000      61.188
  30.0900         44875.000      61.074
  30.1900         44346.000      61.245
  30.2900         44461.000      60.341
  30.3900         44695.000      61.351
  30.4900         45454.000      60.704
  30.5900         45596.000      61.725
  30.6900         46262.000      62.976
  30.7900         47541.000      62.610
  30.8900         49625.000      65.138
  30.9900         52699.000      65.620
  31.0900         56966.000      68.615
  31.1900         61751.000      72.118
  31.2900         65309.000      74.317
  31.3900         65128.000      73.627
  31.4900         61747.000      71.582
  31.5900         57485.000      69.793
  31.6900         52593.000      65.810
  31.7900         49423.000      64.498
  31.8900         47441.000      62.634
  31.9900         46204.000      62.474
  32.0900         45455.000      62.282
  32.1900         45366.000      61.839
  32.2900         44772.000      60.539
  32.3900         44637.000      60.754
  32.4900         44678.000      61.441
  32.5900         44069.000      60.721
  32.6900         44492.000      61.368
  32.7900         44127.000      60.316
  32.8900         43790.000      60.017
  32.9900         44008.000      60.258
  33.0900         43704.000      60.514
  33.1900         44120.000      59.975
  33.2900         44106.000      60.150
  33.3900         43494.000      60.415
  33.4900         43844.000      60.622
  33.5900         43659.000      60.481
  33.6900         43855.000      60.075
  33.7900         43858.000      60.548
  33.8900         43855.000      59.674
  33.9900         44135.000      60.934
  34.0900         43840.000      60.291
  34.1900         44435.000      60.448
  34.2900         44074.000      60.754
  34.3900         43996.000      60.828
  34.4900         44085.000      61.041
  34.5900         43615.000      60.795
  34.6900         43608.000      60.893
  34.7900         43377.000      60.415
  34.8900         43672.000      60.556
  34.9900         44041.000      60.457
  35.0900         43585.000      60.671
  35.1900         43708.000      59.992
  35.2900         43577.000      59.422
  35.3900         43547.000      60.225
  35.4900         43567.000      60.017
  35.5900         43718.000      61.000
  35.6900         43595.000      60.407
  35.7900         43569.000      60.158
  35.8900         43754.000      60.349
  35.9900         44144.000      60.050
  36.0900         44483.000      61.196
  36.1900         45688.000      62.514
  36.2900         46897.000      61.668
  36.3900         47054.000      63.111
  36.4900         46147.000      61.847
  36.5900         45667.000      62.394
  36.6900         44710.000      60.597
  36.7900         44018.000      61.709
  36.8900         43440.000      61.066
  36.9900         43578.000      60.663
  37.0900         43713.000      59.975
  37.1900         43481.000      59.900
  37.2900         43274.000      60.067
  37.3900         43495.000      61.278
  37.4900         43714.000      60.025
  37.5900         43376.000      60.415
  37.6900         43061.000      60.589
  37.7900         43061.000      60.581
  37.8900         42932.000      60.216
  37.9900         43032.000      60.440
  38.0900         43160.000      59.758
  38.1900         43209.000      59.783
  38.2900         43486.000      59.967
  38.3900         42817.000      60.415
  38.4900         43088.000      59.942
  38.5900         43246.000      60.108
  38.6900         42953.000      59.632
  38.7900         42917.000      60.424
  38.8900         42854.000      59.296
  38.9900         43031.000      59.287
  39.0900         43067.000      59.758
  39.1900         43190.000      60.216
  39.2900         43299.000      59.875
  39.3900         43271.000      60.581
  39.4900         43154.000      59.565
  39.5900         42765.000      60.225
  39.6900         43182.000      59.867
  39.7900         43353.000      61.147
  39.8900         43380.000      60.382
  39.9900         42765.000      59.841
  40.0900         43030.000      59.733
  40.1900         43093.000      60.424
  40.2900         43183.000      60.133
  40.3900         42444.000      59.900
  40.4900         42661.000      60.283
  40.5900         42594.000      58.975
  40.6900         42761.000      59.925
  40.7900         42911.000      60.390
  40.8900         42734.000      59.758
  40.9900         42939.000      59.346
  41.0900         42643.000      59.632
  41.1900         42596.000      60.614
  41.2900         42322.000      60.042
  41.3900         42348.000      59.135
  41.4900         42662.000      60.025
  41.5900         42471.000      59.841
  41.6900         42877.000      60.141
  41.7900         42689.000      59.498
  41.8900         42779.000      59.573
  41.9900         42590.000      59.456
  42.0900         42685.000      60.819
  42.1900         42985.000      59.833
  42.2900         42542.000      59.169
  42.3900         42826.000      58.907
  42.4900         43029.000      59.783
  42.5900         42590.000      59.883
  42.6900         42704.000      60.341
  42.7900         42786.000      59.304
  42.8900         42668.000      60.266
  42.9900         42654.000      59.691
  43.0900         42669.000      59.867
  43.1900         42727.000      59.766
  43.2900         42612.000      59.875
  43.3900         42883.000      60.225
  43.4900         42626.000      59.304
  43.5900         42856.000      60.572
  43.6900         42804.000      60.166
  43.7900         42705.000      58.949
  43.8900         42453.000      59.346
  43.9900         42558.000      59.169
  44.0900         43158.000      61.016
  44.1900         42259.000      60.000
  44.2900         42602.000      60.216
  44.3900         42710.000      59.733
  44.4900         43176.000      59.287
  44.5900         42742.000      59.389
  44.6900         43015.000      60.216
  44.7900         42503.000      59.051
  44.8900         42796.000      59.599
  44.9900         42664.000      59.582
  45.0900         42809.000      59.405
  45.1900         42463.000      59.447
  45.2900         42448.000      60.133
  45.3900         42542.000      60.200
  45.4900         42593.000      59.590
  45.5900         42807.000      59.447
  45.6900         42914.000      59.724
  45.7900         42361.000      60.150
  45.8900         42758.000      59.607
  45.9900         42612.000      60.150
  46.0900         42334.000      59.699
  46.1900         42751.000      59.641
  46.2900         42562.000      59.025
  46.3900         42334.000      59.515
  46.4900         42731.000      60.266
  46.5900         42996.000      60.366
  46.6900         42427.000      60.025
  46.7900         42742.000      59.958
  46.8900         42173.000      59.582
  46.9900         42067.000      59.186
  47.0900         42611.000      59.850
  47.1900         42791.000      60.125
  47.2900         43005.000      59.682
  47.3900         42718.000      59.615
  47.4900         43215.000      59.816
  47.5900         43534.000      60.042
  47.6900         43671.000      60.473
  47.7900         43806.000      60.647
  47.8900         43861.000      60.117
  47.9900         43880.000      60.357
  48.0900         43447.000      59.127
  48.1900         43027.000      59.456
  48.2900         42646.000      59.397
  48.3900         42633.000      59.042
  48.4900         42399.000      59.992
  48.5900         42635.000      59.304
  48.6900         42591.000      59.808
