XYDATA edurneorf Co3O4-quenched_RT_100K 
INTER        1       1       0     0.100000
TEMP       99.7380      100.004      100.000
! d1b Date 13-Nov-11 Time 14:49:40 Run 129864 129853>129864
! d1b Date 13-Nov-11 Time 14:49:40 Run 129864 129853>129864
! Monitor/counts, Counting time/sec:  1.07459e+007 1.07459e+007
   0.7900             6.000       1.000
   0.8900             7.000       1.000
   0.9900          3373.000      15.780
   1.0900          3297.000      16.248
   1.1900          3207.000      15.875
   1.2900          3222.000      17.029
   1.3900          3252.000      16.613
   1.4900          3324.000      16.553
   1.5900          3356.000      17.029
   1.6900          3733.000      18.138
   1.7900          5069.000      21.564
   1.8900          6829.000      23.409
   1.9900          9744.000      28.583
   2.0900         12289.000      31.984
   2.1900         15754.000      36.083
   2.2900         20199.000      40.915
   2.3900         24690.000      46.033
   2.4900         29621.000      49.578
   2.5900         33291.000      52.583
   2.6900         36900.000      55.381
   2.7900         40638.000      58.447
   2.8900         43478.000      60.893
   2.9900         46851.000      62.394
   3.0900         49706.000      64.475
   3.1900         52700.000      67.045
   3.2900         55673.000      68.542
   3.3900         57929.000      69.764
   3.4900         58639.000      69.505
   3.5900         58807.000      70.760
   3.6900         58155.000      70.071
   3.7900         57581.000      69.707
   3.8900         57076.000      68.345
   3.9900         58252.000      69.376
   4.0900         60317.000      70.633
   4.1900         63700.000      72.945
   4.2900         67268.000      75.033
   4.3900         72689.000      77.949
   4.4900         76382.000      79.699
   4.5900         81712.000      82.535
   4.6900         87195.000      84.487
   4.7900         91063.000      86.695
   4.8900         94905.000      88.798
   4.9900         99291.000      90.769
   5.0900        102825.000      92.655
   5.1900        106600.000      94.308
   5.2900        109604.000      95.692
   5.3900        112738.000      96.917
   5.4900        115214.000      97.719
   5.5900        118079.000      99.664
   5.6900        120007.000      99.795
   5.7900        122918.000     100.598
   5.8900        125073.000     103.315
   5.9900        126887.000     103.058
   6.0900        127762.000     103.305
   6.1900        129028.000     103.383
   6.2900        130916.000     104.053
   6.3900        131113.000     103.923
   6.4900        131927.000     104.867
   6.5900        130982.000     105.143
   6.6900        128833.000     103.856
   6.7900        128048.000     103.373
   6.8900        126894.000     103.034
   6.9900        126237.000     103.315
   7.0900        125004.000     101.833
   7.1900        123439.000     100.544
   7.2900        122956.000     101.114
   7.3900        121546.000     100.837
   7.4900        120523.000      99.328
   7.5900        119291.000      99.860
   7.6900        117850.000      99.614
   7.7900        117467.000      99.020
   7.8900        115811.000      97.888
   7.9900        114195.000      98.194
   8.0900        113510.000      97.944
   8.1900        112510.000      96.473
   8.2900        111370.000      96.747
   8.3900        109901.000      95.493
   8.4900        108893.000      95.619
   8.5900        107895.000      94.398
   8.6900        106290.000      94.483
   8.7900        106052.000      94.567
   8.8900        104235.000      92.978
   8.9900        103591.000      92.984
   9.0900        102729.000      93.091
   9.1900        101451.000      92.282
   9.2900        100177.000      91.652
   9.3900         99721.000      90.576
   9.4900         98109.000      90.681
   9.5900         96942.000      90.349
   9.6900         95085.000      89.588
   9.7900         94991.000      89.376
   9.8900         94121.000      88.899
   9.9900         93361.000      88.696
  10.0900         92013.000      87.189
  10.1900         91102.000      87.034
  10.2900         89916.000      86.267
  10.3900         88724.000      86.076
  10.4900         88056.000      85.720
  10.5900         87100.000      84.510
  10.6900         87085.000      85.662
  10.7900         84925.000      84.077
  10.8900         84669.000      84.362
  10.9900         83519.000      83.271
  11.0900         83177.000      82.219
  11.1900         81800.000      83.006
  11.2900         81975.000      82.304
  11.3900         80879.000      81.970
  11.4900         80388.000      81.921
  11.5900         80600.000      81.658
  11.6900         80205.000      81.957
  11.7900         79464.000      81.780
  11.8900         79450.000      80.981
  11.9900         79427.000      81.117
  12.0900         79220.000      81.093
  12.1900         78451.000      79.956
  12.2900         79122.000      81.566
  12.3900         79023.000      80.951
  12.4900         78824.000      81.554
  12.5900         78615.000      81.517
  12.6900         78488.000      81.351
  12.7900         78895.000      81.370
  12.8900         78748.000      80.567
  12.9900         77834.000      80.802
  13.0900         78155.000      80.561
  13.1900         77921.000      80.907
  13.2900         77734.000      80.237
  13.3900         77980.000      80.387
  13.4900         77223.000      80.486
  13.5900         77749.000      81.271
  13.6900         77936.000      80.349
  13.7900         77712.000      80.660
  13.8900         77937.000      81.633
  13.9900         77924.000      79.950
  14.0900         78031.000      80.672
  14.1900         77783.000      81.142
  14.2900         77443.000      79.511
  14.3900         77758.000      80.808
  14.4900         78237.000      80.957
  14.5900         77358.000      80.598
  14.6900         77476.000      80.299
  14.7900         77256.000      79.568
  14.8900         77425.000      80.181
  14.9900         77630.000      79.768
  15.0900         77462.000      79.981
  15.1900         77857.000      80.044
  15.2900         78425.000      80.870
  15.3900         78226.000      81.419
  15.4900         78321.000      81.136
  15.5900         77792.000      80.231
  15.6900         77911.000      80.523
  15.7900         77292.000      79.800
  15.8900         77124.000      79.831
  15.9900         77473.000      80.759
  16.0900         76950.000      80.243
  16.1900         76630.000      80.031
  16.2900         77106.000      79.737
  16.3900         77094.000      80.542
  16.4900         76780.000      79.806
  16.5900         76721.000      80.287
  16.6900         76770.000      79.944
  16.7900         76785.000      80.012
  16.8900         76608.000      79.555
  16.9900         76756.000      79.133
  17.0900         77231.000      80.753
  17.1900         76903.000      79.806
  17.2900         76865.000      79.862
  17.3900         76275.000      78.721
  17.4900         76873.000      79.549
  17.5900         77067.000      79.931
  17.6900         76895.000      80.293
  17.7900         76391.000      79.492
  17.8900         76450.000      80.212
  17.9900         77283.000      80.529
  18.0900         76608.000      79.743
  18.1900         76415.000      79.881
  18.2900         76950.000      79.177
  18.3900         77178.000      79.668
  18.4900         76636.000      80.548
  18.5900         76752.000      79.906
  18.6900         76842.000      80.666
  18.7900         76699.000      80.262
  18.8900         76741.000      79.706
  18.9900         76934.000      80.697
  19.0900         76700.000      80.144
  19.1900         76324.000      80.623
  19.2900         76569.000      80.312
  19.3900         76895.000      80.449
  19.4900         76530.000      80.362
  19.5900         76257.000      79.599
  19.6900         76045.000      79.492
  19.7900         76866.000      79.962
  19.8900         76239.000      80.225
  19.9900         76481.000      80.654
  20.0900         76459.000      79.164
  20.1900         77102.000      80.131
  20.2900         76939.000      79.718
  20.3900         76417.000      79.517
  20.4900         77050.000      80.548
  20.5900         76871.000      80.368
  20.6900         76830.000      80.137
  20.7900         77401.000      80.529
  20.8900         76811.000      79.568
  20.9900         77090.000      80.988
  21.0900         76711.000      80.206
  21.1900         77422.000      79.511
  21.2900         76588.000      79.925
  21.3900         76825.000      79.114
  21.4900         76520.000      80.050
  21.5900         76801.000      79.668
  21.6900         76978.000      79.987
  21.7900         77226.000      79.668
  21.8900         76823.000      80.318
  21.9900         76746.000      79.718
  22.0900         76773.000      80.293
  22.1900         77505.000      79.448
  22.2900         76716.000      80.368
  22.3900         76993.000      79.605
  22.4900         77085.000      79.699
  22.5900         77231.000      81.462
  22.6900         76860.000      80.137
  22.7900         76925.000      80.914
  22.8900         77199.000      81.105
  22.9900         77777.000      79.712
  23.0900         77580.000      81.370
  23.1900         77182.000      79.486
  23.2900         77436.000      80.870
  23.3900         77133.000      80.387
  23.4900         77486.000      80.050
  23.5900         77490.000      80.511
  23.6900         77563.000      80.069
  23.7900         78049.000      81.173
  23.8900         77887.000      79.775
  23.9900         77967.000      80.218
  24.0900         77328.000      79.196
  24.1900         77866.000      80.505
  24.2900         77252.000      80.343
  24.3900         77056.000      80.449
  24.4900         77614.000      80.062
  24.5900         78234.000      80.907
  24.6900         77736.000      80.293
  24.7900         77889.000      80.012
  24.8900         77834.000      81.609
  24.9900         77814.000      81.234
  25.0900         77745.000      80.362
  25.1900         77468.000      80.926
  25.2900         77732.000      79.900
  25.3900         78617.000      81.006
  25.4900         78770.000      81.302
  25.5900         78484.000      81.805
  25.6900         77688.000      80.486
  25.7900         77820.000      80.187
  25.8900         78421.000      80.796
  25.9900         77692.000      81.062
  26.0900         77506.000      80.647
  26.1900         77739.000      79.756
  26.2900         77907.000      80.777
  26.3900         77919.000      80.728
  26.4900         78138.000      80.932
  26.5900         77924.000      80.616
  26.6900         77561.000      79.925
  26.7900         78125.000      81.682
  26.8900         77554.000      80.815
  26.9900         77900.000      81.247
  27.0900         78337.000      80.492
  27.1900         77366.000      81.043
  27.2900         78255.000      81.117
  27.3900         78088.000      80.883
  27.4900         78795.000      80.796
  27.5900         77758.000      81.037
  27.6900         78210.000      81.185
  27.7900         78127.000      81.123
  27.8900         78070.000      80.672
  27.9900         78451.000      81.541
  28.0900         78234.000      80.380
  28.1900         77797.000      80.920
  28.2900         78107.000      81.431
  28.3900         78310.000      81.031
  28.4900         78040.000      80.994
  28.5900         78133.000      81.210
  28.6900         78156.000      79.687
  28.7900         77823.000      80.486
  28.8900         77979.000      80.951
  28.9900         77787.000      80.368
  29.0900         77359.000      80.747
  29.1900         78494.000      80.436
  29.2900         78434.000      80.846
  29.3900         78371.000      80.467
  29.4900         78794.000      81.560
  29.5900         78807.000      80.771
  29.6900         78896.000      81.247
  29.7900         78466.000      80.542
  29.8900         79314.000      81.308
  29.9900         79773.000      81.123
  30.0900         80137.000      82.268
  30.1900         80111.000      81.756
  30.2900         79717.000      82.158
  30.3900         80090.000      80.833
  30.4900         81434.000      82.237
  30.5900         82209.000      82.722
  30.6900         84511.000      84.042
  30.7900         87396.000      85.106
  30.8900         91712.000      87.224
  30.9900         98709.000      90.863
  31.0900        108297.000      94.953
  31.1900        116706.000      97.908
  31.2900        123672.000     101.153
  31.3900        123360.000     101.975
  31.4900        117544.000      98.778
  31.5900        108254.000      94.303
  31.6900         99212.000      91.187
  31.7900         92376.000      87.664
  31.8900         87747.000      85.697
  31.9900         84527.000      83.863
  32.0900         82826.000      83.235
  32.1900         81625.000      82.916
  32.2900         80036.000      82.213
  32.3900         79594.000      81.308
  32.4900         79268.000      82.231
  32.5900         79447.000      81.878
  32.6900         79121.000      81.695
  32.7900         78598.000      80.037
  32.8900         78270.000      81.406
  32.9900         78498.000      81.357
  33.0900         78052.000      80.839
  33.1900         78938.000      81.505
  33.2900         78375.000      80.839
  33.3900         77873.000      81.271
  33.4900         78163.000      81.320
  33.5900         77801.000      80.374
  33.6900         78112.000      81.086
  33.7900         77655.000      81.185
  33.8900         78100.000      81.111
  33.9900         78104.000      79.962
  34.0900         79030.000      80.963
  34.1900         78745.000      81.031
  34.2900         78630.000      81.265
  34.3900         78222.000      80.660
  34.4900         78472.000      81.314
  34.5900         77607.000      80.206
  34.6900         77390.000      79.725
  34.7900         77865.000      80.256
  34.8900         77306.000      80.287
  34.9900         77831.000      80.907
  35.0900         77321.000      80.349
  35.1900         77597.000      80.225
  35.2900         77802.000      80.318
  35.3900         77463.000      79.912
  35.4900         77655.000      80.256
  35.5900         77799.000      81.486
  35.6900         77896.000      80.050
  35.7900         78037.000      80.629
  35.8900         78267.000      81.068
  35.9900         79168.000      81.554
  36.0900         80397.000      81.743
  36.1900         83067.000      83.391
  36.2900         84436.000      84.018
  36.3900         85271.000      84.829
  36.4900         84405.000      84.006
  36.5900         81806.000      83.132
  36.6900         80245.000      81.896
  36.7900         78832.000      80.808
  36.8900         78223.000      81.388
  36.9900         78184.000      80.969
  37.0900         77820.000      79.869
  37.1900         77845.000      80.380
  37.2900         77219.000      80.938
  37.3900         77786.000      81.333
  37.4900         76718.000      80.012
  37.5900         77127.000      80.511
  37.6900         76963.000      81.068
  37.7900         77655.000      80.505
  37.8900         77016.000      80.740
  37.9900         76653.000      79.875
  38.0900         76673.000      81.191
  38.1900         77296.000      79.768
  38.2900         77099.000      80.635
  38.3900         76859.000      80.672
  38.4900         76787.000      80.094
  38.5900         76496.000      80.368
  38.6900         76459.000      79.856
  38.7900         76761.000      79.278
  38.8900         76615.000      80.175
  38.9900         76941.000      80.994
  39.0900         76436.000      79.467
  39.1900         76666.000      80.019
  39.2900         77156.000      79.246
  39.3900         77116.000      80.380
  39.4900         76979.000      79.699
  39.5900         76773.000      80.187
  39.6900         76934.000      80.449
  39.7900         77512.000      80.362
  39.8900         76767.000      79.781
  39.9900         77176.000      80.268
  40.0900         77159.000      80.006
  40.1900         76539.000      79.856
  40.2900         76658.000      79.398
  40.3900         76716.000      80.175
  40.4900         77112.000      81.314
  40.5900         76542.000      80.461
  40.6900         76471.000      80.075
  40.7900         75795.000      79.454
  40.8900         76191.000      79.498
  40.9900         76064.000      80.368
  41.0900         76417.000      79.912
  41.1900         75626.000      79.209
  41.2900         76890.000      79.473
  41.3900         76606.000      80.150
  41.4900         76251.000      79.906
  41.5900         76402.000      80.019
  41.6900         75964.000      79.599
  41.7900         76423.000      78.886
  41.8900         76255.000      79.712
  41.9900         76126.000      79.586
  42.0900         75890.000      79.051
  42.1900         76172.000      79.586
  42.2900         76011.000      79.354
  42.3900         76211.000      79.473
  42.4900         75687.000      79.605
  42.5900         76481.000      79.681
  42.6900         75743.000      79.089
  42.7900         75504.000      79.856
  42.8900         75706.000      78.759
  42.9900         75410.000      79.404
  43.0900         75232.000      79.272
  43.1900         75533.000      80.523
  43.2900         75687.000      80.399
  43.3900         76204.000      79.291
  43.4900         75340.000      79.637
  43.5900         76025.000      79.649
  43.6900         75281.000      79.019
  43.7900         75524.000      79.480
  43.8900         75372.000      78.854
  43.9900         75479.000      79.637
  44.0900         75186.000      79.379
  44.1900         75505.000      79.404
  44.2900         74890.000      79.404
  44.3900         74786.000      79.209
  44.4900         75721.000      79.869
  44.5900         75408.000      79.681
  44.6900         74767.000      78.262
  44.7900         75393.000      79.599
  44.8900         75084.000      79.580
  44.9900         75003.000      79.612
  45.0900         75097.000      78.619
  45.1900         75026.000      78.905
  45.2900         75313.000      78.880
  45.3900         75441.000      78.930
  45.4900         75042.000      78.835
  45.5900         74623.000      78.588
  45.6900         74765.000      79.875
  45.7900         74889.000      79.089
  45.8900         74906.000      78.854
  45.9900         74992.000      78.930
  46.0900         74833.000      78.198
  46.1900         74763.000      79.505
  46.2900         74957.000      79.423
  46.3900         74924.000      78.396
  46.4900         75125.000      79.063
  46.5900         75255.000      79.574
  46.6900         74468.000      79.006
  46.7900         75241.000      79.070
  46.8900         75080.000      78.848
  46.9900         74610.000      79.385
  47.0900         74446.000      78.949
  47.1900         75414.000      79.360
  47.2900         75362.000      79.259
  47.3900         74963.000      79.825
  47.4900         75630.000      78.949
  47.5900         77011.000      80.156
  47.6900         77413.000      80.554
  47.7900         78256.000      81.339
  47.8900         78438.000      81.080
  47.9900         77999.000      80.169
  48.0900         77219.000      79.950
  48.1900         75680.000      78.937
  48.2900         75750.000      79.768
  48.3900         74933.000      79.070
  48.4900         74866.000      79.718
  48.5900         74653.000      79.668
  48.6900         74702.000      79.467
