XYDATA SparksLave Co3O4-quenched_650_1.5K 
INTER        1       1       0     0.100000
TEMP       1.41160      1.61330      1.50000
! d1b Date 16-Nov-11 Time 01:45:53 Run 130094 130083>130094
! d1b Date 16-Nov-11 Time 01:45:53 Run 130094 130083>130094
! Monitor/counts, Counting time/sec:  1.09440e+007 1.09440e+007
   0.7900             2.000       1.000
   0.8900             6.000       1.000
   0.9900          1815.000      12.166
   1.0900          1849.000      12.000
   1.1900          1730.000      11.916
   1.2900          1683.000      12.410
   1.3900          1742.000      11.662
   1.4900          1787.000      12.490
   1.5900          1840.000      11.446
   1.6900          1915.000      12.530
   1.7900          2574.000      15.297
   1.8900          3858.000      17.833
   1.9900          6352.000      23.516
   2.0900          8810.000      27.258
   2.1900         11294.000      30.935
   2.2900         14056.000      34.511
   2.3900         17636.000      39.421
   2.4900         21648.000      42.919
   2.5900         25439.000      45.902
   2.6900         28824.000      49.325
   2.7900         31816.000      50.951
   2.8900         34424.000      52.811
   2.9900         37525.000      56.833
   3.0900         40457.000      58.421
   3.1900         43462.000      59.808
   3.2900         44517.000      60.274
   3.3900         45272.000      61.408
   3.4900         44481.000      61.376
   3.5900         44170.000      61.376
   3.6900         43052.000      60.017
   3.7900         42730.000      59.791
   3.8900         41700.000      59.515
   3.9900         42532.000      59.850
   4.0900         42720.000      59.565
   4.1900         42428.000      58.643
   4.2900         42381.000      59.557
   4.3900         42769.000      60.008
   4.4900         43352.000      59.615
   4.5900         44384.000      60.614
   4.6900         46159.000      61.830
   4.7900         47534.000      62.809
   4.8900         49081.000      63.961
   4.9900         50964.000      64.969
   5.0900         52195.000      66.317
   5.1900         53392.000      67.142
   5.2900         54704.000      67.683
   5.3900         56466.000      68.367
   5.4900         57602.000      69.361
   5.5900         58680.000      69.864
   5.6900         60303.000      70.583
   5.7900         61390.000      71.218
   5.8900         63232.000      72.719
   5.9900         64459.000      72.471
   6.0900         65373.000      74.115
   6.1900         64713.000      74.034
   6.2900         65605.000      74.095
   6.3900         65275.000      74.108
   6.4900         64810.000      72.705
   6.5900         64133.000      73.082
   6.6900         63931.000      71.937
   6.7900         63873.000      72.305
   6.8900         63275.000      72.201
   6.9900         62683.000      72.256
   7.0900         61926.000      72.021
   7.1900         61366.000      72.035
   7.2900         60728.000      71.260
   7.3900         59988.000      70.838
   7.4900         59415.000      70.171
   7.5900         58184.000      69.900
   7.6900         57737.000      69.412
   7.7900         56561.000      69.642
   7.8900         56231.000      68.666
   7.9900         55076.000      67.794
   8.0900         54377.000      67.661
   8.1900         53515.000      67.246
   8.2900         52944.000      66.000
   8.3900         51699.000      65.803
   8.4900         51652.000      64.707
   8.5900         50253.000      64.436
   8.6900         49717.000      64.250
   8.7900         48939.000      65.330
   8.8900         48345.000      63.953
   8.9900         46857.000      62.841
   9.0900         46516.000      62.185
   9.1900         45506.000      61.066
   9.2900         44478.000      61.652
   9.3900         43828.000      60.638
   9.4900         43555.000      60.581
   9.5900         42335.000      59.059
   9.6900         41592.000      57.879
   9.7900         40668.000      58.189
   9.8900         40025.000      57.671
   9.9900         39393.000      56.991
  10.0900         37942.000      56.107
  10.1900         37424.000      54.663
  10.2900         36965.000      54.415
  10.3900         35955.000      54.699
  10.4900         35663.000      54.415
  10.5900         34626.000      53.460
  10.6900         34336.000      53.282
  10.7900         33734.000      54.120
  10.8900         33500.000      52.488
  10.9900         33746.000      52.650
  11.0900         33120.000      52.877
  11.1900         32802.000      53.038
  11.2900         32635.000      52.182
  11.3900         32871.000      52.077
  11.4900         32619.000      53.123
  11.5900         32683.000      51.856
  11.6900         32506.000      52.067
  11.7900         33109.000      52.374
  11.8900         32537.000      51.381
  11.9900         32789.000      51.430
  12.0900         32630.000      51.643
  12.1900         32499.000      51.420
  12.2900         32745.000      52.697
  12.3900         32280.000      51.759
  12.4900         32384.000      53.000
  12.5900         32402.000      52.096
  12.6900         32471.000      51.933
  12.7900         32353.000      52.383
  12.8900         32610.000      51.740
  12.9900         32467.000      52.000
  13.0900         32262.000      52.450
  13.1900         32523.000      53.245
  13.2900         32609.000      51.817
  13.3900         32155.000      51.865
  13.4900         32667.000      52.288
  13.5900         32350.000      52.058
  13.6900         32326.000      51.913
  13.7900         32564.000      52.316
  13.8900         32454.000      52.612
  13.9900         32507.000      51.400
  14.0900         32316.000      51.875
  14.1900         32390.000      52.154
  14.2900         32354.000      52.326
  14.3900         32323.000      52.421
  14.4900         32559.000      51.846
  14.5900         32619.000      52.106
  14.6900         32188.000      51.323
  14.7900         32543.000      51.653
  14.8900         32205.000      51.990
  14.9900         32373.000      52.716
  15.0900         32702.000      51.913
  15.1900         33295.000      51.990
  15.2900         33641.000      53.123
  15.3900         34378.000      52.460
  15.4900         34595.000      53.339
  15.5900         33916.000      52.972
  15.6900         33171.000      53.141
  15.7900         33020.000      51.730
  15.8900         32433.000      52.421
  15.9900         32387.000      51.000
  16.0900         32566.000      51.836
  16.1900         32611.000      51.186
  16.2900         32847.000      51.010
  16.3900         32626.000      51.517
  16.4900         32405.000      52.839
  16.5900         32592.000      51.913
  16.6900         32320.000      52.393
  16.7900         32470.000      52.125
  16.8900         32761.000      53.647
  16.9900         32453.000      51.942
  17.0900         32777.000      53.000
  17.1900         32794.000      52.839
  17.2900         32685.000      52.297
  17.3900         32619.000      51.711
  17.4900         32737.000      51.575
  17.5900         32671.000      52.077
  17.6900         33134.000      52.545
  17.7900         33629.000      52.316
  17.8900         33781.000      52.754
  17.9900         33896.000      52.868
  18.0900         33352.000      52.849
  18.1900         32725.000      52.669
  18.2900         32760.000      52.211
  18.3900         32846.000      52.125
  18.4900         32718.000      52.211
  18.5900         32741.000      51.391
  18.6900         32992.000      51.942
  18.7900         32677.000      52.115
  18.8900         32394.000      51.430
  18.9900         32735.000      52.240
  19.0900         32672.000      52.602
  19.1900         32803.000      52.669
  19.2900         32526.000      52.498
  19.3900         32691.000      52.669
  19.4900         32883.000      52.688
  19.5900         32724.000      52.326
  19.6900         32870.000      52.574
  19.7900         33219.000      52.517
  19.8900         33122.000      52.991
  19.9900         32856.000      52.221
  20.0900         32517.000      52.067
  20.1900         32875.000      51.342
  20.2900         32842.000      52.316
  20.3900         32580.000      51.817
  20.4900         32738.000      52.355
  20.5900         32975.000      52.048
  20.6900         33031.000      52.621
  20.7900         33058.000      52.991
  20.8900         33381.000      52.450
  20.9900         32964.000      52.583
  21.0900         32857.000      51.913
  21.1900         33098.000      51.498
  21.2900         33115.000      51.420
  21.3900         33356.000      53.066
  21.4900         33180.000      53.047
  21.5900         32878.000      52.726
  21.6900         32918.000      51.701
  21.7900         33241.000      52.249
  21.8900         32933.000      52.421
  21.9900         33194.000      52.488
  22.0900         32990.000      51.614
  22.1900         32811.000      51.933
  22.2900         32966.000      52.839
  22.3900         33125.000      52.326
  22.4900         32891.000      52.192
  22.5900         32950.000      51.614
  22.6900         32951.000      52.735
  22.7900         33075.000      52.173
  22.8900         33146.000      51.381
  22.9900         32881.000      52.240
  23.0900         33375.000      53.019
  23.1900         33352.000      52.269
  23.2900         33306.000      52.526
  23.3900         33396.000      52.612
  23.4900         33558.000      53.731
  23.5900         33254.000      52.450
  23.6900         33191.000      52.669
  23.7900         33354.000      53.057
  23.8900         33372.000      52.896
  23.9900         33835.000      52.374
  24.0900         33328.000      53.310
  24.1900         33290.000      52.981
  24.2900         33024.000      52.421
  24.3900         33315.000      53.516
  24.4900         33120.000      52.431
  24.5900         33110.000      52.221
  24.6900         33506.000      52.981
  24.7900         33345.000      52.688
  24.8900         33355.000      53.217
  24.9900         33123.000      52.754
  25.0900         33636.000      53.198
  25.1900         33551.000      52.335
  25.2900         33460.000      52.773
  25.3900         34049.000      53.104
  25.4900         33892.000      53.610
  25.5900         33807.000      53.160
  25.6900         33487.000      52.868
  25.7900         33583.000      52.307
  25.8900         33602.000      53.217
  25.9900         33448.000      51.990
  26.0900         33687.000      52.640
  26.1900         33590.000      52.202
  26.2900         33411.000      53.572
  26.3900         33603.000      52.640
  26.4900         33371.000      53.385
  26.5900         33786.000      53.339
  26.6900         33587.000      53.675
  26.7900         33821.000      53.638
  26.8900         33757.000      53.712
  26.9900         33802.000      53.507
  27.0900         33808.000      52.631
  27.1900         33768.000      53.395
  27.2900         33980.000      53.907
  27.3900         33826.000      53.666
  27.4900         33654.000      52.981
  27.5900         33711.000      52.991
  27.6900         33749.000      53.703
  27.7900         34067.000      52.383
  27.8900         33744.000      52.688
  27.9900         33984.000      53.226
  28.0900         33992.000      52.811
  28.1900         33881.000      53.554
  28.2900         33821.000      52.896
  28.3900         34482.000      53.684
  28.4900         34106.000      52.393
  28.5900         34002.000      53.104
  28.6900         34277.000      53.263
  28.7900         34280.000      53.870
  28.8900         33930.000      53.085
  28.9900         34189.000      53.310
  29.0900         34213.000      54.028
  29.1900         34317.000      53.759
  29.2900         34301.000      53.348
  29.3900         34039.000      53.628
  29.4900         34338.000      54.148
  29.5900         34277.000      52.849
  29.6900         34718.000      53.638
  29.7900         34835.000      54.342
  29.8900         36108.000      54.498
  29.9900         36285.000      55.245
  30.0900         35726.000      54.918
  30.1900         35723.000      53.954
  30.2900         35369.000      54.415
  30.3900         35376.000      54.314
  30.4900         36042.000      53.749
  30.5900         36678.000      54.727
  30.6900         37333.000      55.884
  30.7900         38909.000      56.312
  30.8900         42302.000      59.523
  30.9900         50212.000      65.054
  31.0900         64322.000      73.335
  31.1900         85343.000      84.095
  31.2900        102289.000      92.195
  31.3900        102275.000      92.434
  31.4900         86749.000      84.244
  31.5900         65703.000      73.946
  31.6900         50371.000      65.207
  31.7900         42021.000      59.127
  31.8900         38576.000      56.719
  31.9900         36837.000      54.982
  32.0900         36306.000      54.608
  32.1900         35903.000      54.406
  32.2900         35580.000      53.292
  32.3900         35164.000      53.385
  32.4900         35496.000      54.571
  32.5900         34894.000      53.217
  32.6900         34659.000      52.792
  32.7900         34930.000      54.489
  32.8900         34906.000      54.028
  32.9900         34892.000      53.404
  33.0900         34915.000      53.273
  33.1900         34735.000      54.037
  33.2900         34441.000      53.198
  33.3900         34676.000      53.423
  33.4900         34277.000      52.991
  33.5900         34582.000      53.861
  33.6900         34220.000      53.141
  33.7900         34315.000      52.383
  33.8900         34579.000      54.240
  33.9900         34621.000      52.745
  34.0900         34863.000      54.093
  34.1900         35035.000      54.470
  34.2900         35402.000      54.314
  34.3900         34755.000      52.991
  34.4900         34756.000      53.217
  34.5900         34850.000      53.712
  34.6900         34857.000      53.731
  34.7900         34624.000      53.684
  34.8900         34443.000      53.619
  34.9900         34593.000      54.259
  35.0900         34819.000      53.000
  35.1900         34854.000      53.226
  35.2900         34427.000      53.759
  35.3900         34816.000      54.406
  35.4900         35260.000      54.470
  35.5900         35179.000      55.435
  35.6900         35777.000      54.653
  35.7900         36872.000      55.344
  35.8900         38429.000      54.800
  35.9900         42295.000      58.890
  36.0900         48626.000      62.944
  36.1900         57782.000      68.964
  36.2900         66945.000      74.907
  36.3900         70490.000      76.479
  36.4900         65169.000      72.822
  36.5900         55746.000      67.875
  36.6900         46887.000      62.714
  36.7900         40636.000      57.628
  36.8900         37413.000      55.381
  36.9900         36639.000      54.672
  37.0900         36090.000      54.836
  37.1900         35254.000      54.955
  37.2900         35038.000      53.235
  37.3900         34736.000      53.404
  37.4900         34657.000      53.582
  37.5900         34790.000      52.735
  37.6900         34265.000      53.113
  37.7900         34150.000      53.301
  37.8900         34247.000      53.009
  37.9900         34095.000      52.735
  38.0900         34337.000      53.535
  38.1900         34255.000      52.868
  38.2900         33928.000      53.000
  38.3900         33929.000      53.301
  38.4900         34022.000      53.282
  38.5900         33965.000      52.507
  38.6900         34013.000      53.038
  38.7900         33959.000      52.269
  38.8900         33661.000      53.544
  38.9900         33991.000      53.329
  39.0900         33803.000      52.669
  39.1900         33731.000      51.990
  39.2900         33776.000      53.432
  39.3900         33911.000      52.820
  39.4900         34132.000      53.329
  39.5900         33969.000      53.170
  39.6900         34742.000      53.000
  39.7900         34807.000      53.423
  39.8900         34433.000      53.367
  39.9900         34185.000      53.824
  40.0900         33797.000      51.759
  40.1900         34039.000      53.207
  40.2900         34014.000      53.085
  40.3900         34247.000      54.166
  40.4900         34038.000      52.934
  40.5900         33717.000      53.038
  40.6900         33490.000      52.421
  40.7900         34112.000      53.610
  40.8900         34136.000      53.563
  40.9900         33829.000      53.367
  41.0900         33850.000      52.934
  41.1900         33724.000      52.249
  41.2900         33727.000      52.802
  41.3900         33495.000      51.942
  41.4900         33477.000      53.151
  41.5900         33651.000      53.160
  41.6900         33441.000      52.896
  41.7900         33537.000      52.640
  41.8900         33491.000      52.764
  41.9900         33416.000      52.316
  42.0900         33802.000      53.628
  42.1900         34001.000      53.075
  42.2900         33649.000      53.094
  42.3900         33963.000      53.563
  42.4900         33624.000      53.395
  42.5900         33767.000      52.650
  42.6900         33653.000      52.583
  42.7900         33546.000      51.633
  42.8900         33328.000      52.221
  42.9900         33251.000      52.086
  43.0900         33531.000      53.805
  43.1900         33736.000      52.659
  43.2900         33402.000      52.574
  43.3900         33476.000      53.320
  43.4900         33422.000      52.764
  43.5900         33508.000      52.697
  43.6900         33607.000      52.783
  43.7900         33750.000      51.933
  43.8900         33793.000      52.678
  43.9900         33555.000      53.207
  44.0900         33683.000      52.764
  44.1900         33613.000      52.621
  44.2900         33661.000      52.517
  44.3900         33972.000      53.814
  44.4900         33774.000      53.833
  44.5900         33625.000      52.402
  44.6900         33544.000      52.115
  44.7900         33529.000      52.077
  44.8900         33490.000      52.249
  44.9900         33843.000      52.868
  45.0900         33403.000      52.307
  45.1900         33843.000      52.820
  45.2900         33550.000      51.565
  45.3900         33570.000      52.383
  45.4900         33095.000      52.240
  45.5900         33646.000      52.943
  45.6900         33539.000      52.991
  45.7900         33523.000      51.990
  45.8900         33475.000      51.942
  45.9900         33485.000      52.316
  46.0900         33427.000      52.316
  46.1900         33728.000      52.421
  46.2900         33748.000      51.778
  46.3900         33490.000      53.009
  46.4900         33898.000      52.650
  46.5900         33785.000      52.202
  46.6900         33506.000      52.849
  46.7900         33387.000      52.536
  46.8900         33540.000      52.450
  46.9900         33410.000      53.066
  47.0900         33662.000      52.307
  47.1900         33822.000      53.310
  47.2900         33711.000      52.144
  47.3900         33638.000      53.339
  47.4900         33737.000      52.211
  47.5900         34385.000      53.470
  47.6900         35770.000      54.203
  47.7900         36413.000      54.562
  47.8900         37032.000      55.489
  47.9900         35893.000      54.019
  48.0900         34707.000      52.659
  48.1900         33943.000      52.593
  48.2900         33835.000      53.047
  48.3900         33585.000      52.393
  48.4900         33756.000      52.868
  48.5900         33603.000      51.769
