XYDATA edurneorf Co3O4-quenched_500_1.5K 
INTER        1       1       0     0.100000
TEMP       1.42550      1.62750      1.50000
! d1b Date 13-Nov-11 Time 19:10:56 Run 129876 129865>129876
! d1b Date 13-Nov-11 Time 19:10:56 Run 129876 129865>129876
! Monitor/counts, Counting time/sec:  1.09197e+007 1.09197e+007
   0.7900             6.000       1.000
   0.8900             7.000       1.000
   0.9900          2157.000      13.675
   1.0900          2157.000      12.649
   1.1900          2156.000      14.142
   1.2900          2108.000      13.565
   1.3900          2073.000      12.124
   1.4900          2143.000      14.071
   1.5900          2078.000      13.153
   1.6900          2311.000      13.964
   1.7900          2815.000      15.330
   1.8900          4241.000      18.921
   1.9900          6759.000      24.228
   2.0900          9084.000      26.851
   2.1900         11166.000      30.610
   2.2900         14426.000      34.351
   2.3900         17953.000      38.536
   2.4900         22047.000      43.232
   2.5900         25792.000      46.433
   2.6900         29722.000      49.970
   2.7900         32537.000      51.420
   2.8900         35510.000      53.479
   2.9900         38453.000      56.498
   3.0900         41346.000      59.313
   3.1900         44220.000      61.098
   3.2900         45520.000      61.717
   3.3900         45858.000      61.782
   3.4900         45384.000      61.522
   3.5900         45108.000      61.571
   3.6900         44208.000      60.424
   3.7900         43841.000      60.117
   3.8900         42573.000      59.051
   3.9900         43733.000      60.357
   4.0900         43618.000      59.908
   4.1900         43806.000      60.745
   4.2900         43723.000      60.737
   4.3900         43937.000      59.532
   4.4900         44450.000      60.332
   4.5900         45837.000      62.089
   4.6900         48223.000      63.317
   4.7900         50713.000      65.284
   4.8900         52778.000      66.098
   4.9900         55576.000      67.993
   5.0900         57368.000      68.949
   5.1900         59758.000      70.463
   5.2900         61970.000      72.374
   5.3900         64070.000      73.587
   5.4900         65637.000      74.478
   5.5900         68234.000      76.072
   5.6900         70101.000      76.805
   5.7900         72050.000      77.640
   5.8900         73444.000      77.627
   5.9900         75213.000      78.600
   6.0900         76591.000      79.887
   6.1900         77445.000      80.449
   6.2900         76983.000      80.461
   6.3900         76367.000      79.950
   6.4900         76352.000      79.574
   6.5900         75717.000      78.905
   6.6900         74886.000      79.656
   6.7900         75068.000      78.006
   6.8900         74516.000      77.942
   6.9900         73770.000      77.556
   7.0900         73446.000      77.369
   7.1900         72228.000      77.647
   7.2900         71718.000      77.039
   7.3900         71404.000      76.026
   7.4900         70710.000      76.400
   7.5900         69993.000      75.881
   7.6900         68529.000      75.326
   7.7900         68187.000      75.558
   7.8900         67296.000      74.987
   7.9900         66218.000      73.314
   8.0900         65678.000      73.178
   8.1900         64859.000      73.171
   8.2900         64517.000      73.273
   8.3900         63134.000      72.615
   8.4900         62583.000      71.316
   8.5900         61130.000      71.267
   8.6900         60646.000      70.781
   8.7900         59720.000      69.800
   8.8900         58475.000      69.289
   8.9900         57549.000      68.833
   9.0900         56985.000      68.140
   9.1900         55950.000      68.352
   9.2900         55146.000      67.565
   9.3900         54327.000      66.438
   9.4900         54128.000      66.701
   9.5900         53104.000      66.068
   9.6900         51882.000      65.284
   9.7900         50908.000      65.138
   9.8900         50135.000      63.914
   9.9900         49288.000      64.514
  10.0900         48551.000      63.340
  10.1900         47297.000      62.129
  10.2900         47024.000      61.262
  10.3900         45771.000      61.008
  10.4900         44998.000      60.943
  10.5900         44833.000      60.249
  10.6900         44439.000      60.959
  10.7900         43642.000      60.083
  10.8900         43246.000      59.287
  10.9900         43101.000      59.975
  11.0900         42871.000      59.161
  11.1900         42447.000      58.626
  11.2900         42450.000      60.058
  11.3900         42465.000      58.634
  11.4900         42148.000      59.321
  11.5900         41998.000      59.565
  11.6900         42366.000      58.949
  11.7900         42385.000      59.967
  11.8900         42111.000      59.389
  11.9900         42512.000      59.068
  12.0900         42046.000      58.737
  12.1900         41999.000      58.060
  12.2900         42075.000      59.076
  12.3900         42185.000      59.397
  12.4900         41883.000      57.585
  12.5900         41557.000      58.284
  12.6900         41675.000      59.389
  12.7900         41667.000      58.796
  12.8900         41711.000      58.060
  12.9900         41515.000      57.905
  13.0900         41592.000      58.344
  13.1900         41566.000      59.615
  13.2900         41878.000      59.203
  13.3900         41334.000      59.034
  13.4900         41474.000      58.060
  13.5900         41534.000      58.686
  13.6900         41693.000      58.788
  13.7900         41472.000      58.754
  13.8900         41593.000      59.144
  13.9900         41658.000      58.617
  14.0900         41394.000      57.991
  14.1900         41921.000      58.421
  14.2900         41794.000      58.864
  14.3900         41350.000      57.541
  14.4900         41464.000      57.957
  14.5900         41582.000      58.438
  14.6900         41390.000      58.438
  14.7900         41607.000      57.957
  14.8900         41361.000      58.643
  14.9900         41209.000      58.949
  15.0900         41729.000      58.215
  15.1900         41669.000      57.480
  15.2900         42843.000      59.833
  15.3900         42915.000      59.414
  15.4900         42898.000      58.771
  15.5900         42653.000      58.924
  15.6900         41590.000      58.566
  15.7900         41393.000      57.593
  15.8900         40712.000      57.914
  15.9900         40842.000      58.617
  16.0900         40781.000      56.930
  16.1900         40940.000      57.567
  16.2900         40738.000      58.232
  16.3900         40827.000      57.550
  16.4900         41225.000      58.060
  16.5900         40824.000      58.515
  16.6900         40939.000      57.628
  16.7900         40790.000      57.966
  16.8900         40435.000      57.332
  16.9900         40611.000      58.541
  17.0900         40937.000      57.741
  17.1900         40906.000      57.706
  17.2900         40863.000      57.602
  17.3900         40749.000      58.335
  17.4900         40838.000      58.207
  17.5900         41326.000      58.387
  17.6900         41781.000      58.558
  17.7900         41353.000      58.643
  17.8900         41922.000      58.103
  17.9900         41424.000      58.069
  18.0900         41226.000      58.489
  18.1900         41667.000      58.378
  18.2900         40769.000      58.043
  18.3900         40847.000      57.524
  18.4900         40765.000      58.121
  18.5900         41102.000      58.310
  18.6900         41143.000      58.078
  18.7900         41521.000      58.822
  18.8900         41126.000      57.166
  18.9900         41051.000      58.694
  19.0900         41053.000      58.103
  19.1900         41200.000      58.310
  19.2900         41081.000      58.412
  19.3900         40608.000      57.974
  19.4900         41097.000      58.694
  19.5900         40788.000      57.297
  19.6900         40732.000      58.138
  19.7900         41201.000      57.991
  19.8900         41052.000      58.301
  19.9900         41187.000      57.991
  20.0900         40493.000      57.280
  20.1900         41227.000      58.412
  20.2900         41477.000      57.845
  20.3900         40950.000      58.095
  20.4900         41186.000      57.810
  20.5900         41207.000      58.907
  20.6900         41242.000      58.189
  20.7900         41073.000      58.000
  20.8900         41167.000      58.000
  20.9900         41283.000      58.617
  21.0900         41118.000      57.983
  21.1900         41205.000      57.585
  21.2900         41313.000      57.819
  21.3900         41122.000      58.078
  21.4900         41511.000      58.121
  21.5900         41504.000      58.932
  21.6900         41543.000      57.715
  21.7900         41178.000      58.523
  21.8900         41786.000      58.558
  21.9900         41286.000      58.318
  22.0900         41721.000      58.720
  22.1900         41448.000      58.677
  22.2900         41382.000      58.737
  22.3900         41374.000      58.395
  22.4900         41731.000      58.779
  22.5900         41558.000      59.102
  22.6900         41789.000      58.026
  22.7900         41834.000      58.839
  22.8900         41888.000      58.395
  22.9900         41831.000      58.677
  23.0900         41672.000      57.914
  23.1900         41734.000      58.813
  23.2900         41927.000      58.720
  23.3900         41849.000      58.172
  23.4900         41977.000      58.017
  23.5900         41751.000      58.086
  23.6900         41970.000      58.796
  23.7900         41889.000      58.796
  23.8900         42269.000      59.582
  23.9900         42488.000      58.095
  24.0900         42432.000      58.241
  24.1900         42250.000      58.310
  24.2900         42050.000      58.172
  24.3900         42066.000      59.414
  24.4900         42073.000      58.975
  24.5900         42063.000      58.805
  24.6900         42294.000      58.720
  24.7900         41802.000      58.600
  24.8900         42056.000      58.232
  24.9900         42000.000      58.703
  25.0900         42010.000      58.352
  25.1900         42214.000      58.703
  25.2900         42349.000      58.249
  25.3900         42702.000      58.703
  25.4900         42939.000      59.422
  25.5900         42634.000      59.025
  25.6900         42583.000      59.110
  25.7900         42154.000      58.464
  25.8900         42556.000      59.245
  25.9900         42086.000      58.805
  26.0900         42856.000      59.008
  26.1900         43054.000      59.699
  26.2900         42775.000      58.779
  26.3900         42452.000      59.506
  26.4900         42362.000      58.983
  26.5900         42959.000      59.169
  26.6900         42527.000      59.051
  26.7900         42247.000      59.051
  26.8900         42307.000      58.489
  26.9900         42614.000      58.335
  27.0900         42803.000      58.301
  27.1900         42569.000      59.195
  27.2900         42619.000      59.051
  27.3900         42845.000      59.119
  27.4900         42600.000      58.455
  27.5900         42516.000      59.254
  27.6900         43011.000      60.183
  27.7900         42784.000      58.915
  27.8900         42721.000      59.228
  27.9900         42932.000      58.856
  28.0900         42937.000      59.127
  28.1900         42733.000      59.025
  28.2900         42846.000      59.506
  28.3900         42909.000      60.108
  28.4900         43224.000      59.649
  28.5900         43215.000      59.355
  28.6900         43168.000      58.805
  28.7900         43095.000      59.582
  28.8900         43098.000      60.067
  28.9900         43427.000      59.203
  29.0900         43183.000      58.788
  29.1900         42799.000      59.211
  29.2900         43284.000      58.378
  29.3900         43539.000      59.691
  29.4900         43838.000      60.017
  29.5900         44116.000      59.933
  29.6900         43675.000      60.291
  29.7900         44237.000      60.424
  29.8900         44971.000      60.770
  29.9900         45377.000      60.811
  30.0900         45185.000      61.000
  30.1900         45309.000      61.164
  30.2900         45327.000      60.283
  30.3900         45840.000      61.254
  30.4900         46470.000      61.049
  30.5900         47438.000      62.097
  30.6900         49378.000      63.222
  30.7900         51778.000      65.521
  30.8900         56392.000      67.772
  30.9900         64174.000      73.192
  31.0900         74854.000      78.083
  31.1900         87940.000      84.581
  31.2900         96451.000      89.443
  31.3900         97277.000      90.526
  31.4900         88201.000      85.592
  31.5900         75487.000      79.649
  31.6900         63710.000      72.090
  31.7900         55941.000      68.513
  31.8900         51592.000      64.892
  31.9900         49067.000      63.836
  32.0900         47781.000      61.587
  32.1900         46362.000      61.871
  32.2900         45693.000      60.506
  32.3900         45446.000      61.057
  32.4900         44874.000      61.311
  32.5900         44404.000      59.825
  32.6900         44634.000      59.908
  32.7900         44511.000      59.800
  32.8900         44204.000      59.724
  32.9900         44596.000      59.858
  33.0900         44471.000      59.422
  33.1900         43947.000      59.875
  33.2900         43714.000      59.942
  33.3900         43909.000      59.506
  33.4900         43467.000      59.042
  33.5900         44152.000      59.456
  33.6900         44087.000      60.324
  33.7900         44115.000      60.341
  33.8900         43865.000      59.034
  33.9900         44449.000      60.481
  34.0900         44790.000      59.186
  34.1900         44857.000      60.440
  34.2900         44661.000      60.754
  34.3900         44611.000      60.481
  34.4900         44921.000      60.125
  34.5900         44277.000      59.950
  34.6900         44440.000      59.967
  34.7900         44224.000      59.766
  34.8900         44498.000      60.349
  34.9900         44400.000      60.067
  35.0900         44404.000      60.506
  35.1900         44603.000      60.457
  35.2900         44943.000      60.556
  35.3900         45276.000      61.205
  35.4900         45618.000      60.688
  35.5900         46402.000      61.514
  35.6900         47586.000      62.314
  35.7900         48308.000      62.562
  35.8900         51021.000      64.094
  35.9900         53799.000      65.788
  36.0900         58299.000      68.454
  36.1900         64226.000      72.794
  36.2900         70005.000      75.505
  36.3900         71368.000      76.295
  36.4900         68471.000      74.088
  36.5900         63503.000      72.512
  36.6900         57498.000      68.760
  36.7900         53282.000      66.008
  36.8900         50317.000      64.172
  36.9900         48553.000      62.546
  37.0900         47184.000      62.258
  37.1900         46245.000      61.368
  37.2900         45583.000      60.158
  37.3900         45235.000      60.877
  37.4900         44826.000      61.106
  37.5900         44801.000      60.605
  37.6900         44558.000      59.632
  37.7900         44507.000      59.093
  37.8900         44716.000      59.615
  37.9900         44270.000      59.346
  38.0900         44566.000      59.992
  38.1900         44147.000      59.950
  38.2900         44102.000      59.254
  38.3900         43768.000      59.599
  38.4900         43982.000      59.892
  38.5900         44069.000      60.514
  38.6900         44081.000      60.308
  38.7900         44359.000      60.481
  38.8900         43918.000      59.447
  38.9900         44046.000      59.875
  39.0900         44285.000      60.249
  39.1900         43665.000      59.203
  39.2900         44302.000      59.431
  39.3900         44508.000      60.630
  39.4900         44759.000      59.178
  39.5900         44513.000      61.041
  39.6900         44901.000      59.624
  39.7900         44928.000      60.083
  39.8900         44468.000      60.191
  39.9900         44384.000      59.892
  40.0900         43915.000      59.917
  40.1900         44449.000      59.532
  40.2900         44617.000      59.523
  40.3900         44386.000      59.716
  40.4900         44157.000      60.324
  40.5900         44217.000      60.033
  40.6900         44434.000      59.582
  40.7900         44349.000      59.791
  40.8900         44388.000      59.816
  40.9900         44350.000      59.615
  41.0900         44210.000      59.397
  41.1900         44210.000      59.749
  41.2900         44126.000      59.473
  41.3900         44684.000      59.816
  41.4900         45139.000      59.674
  41.5900         44066.000      59.304
  41.6900         44433.000      59.975
  41.7900         44405.000      59.025
  41.8900         44189.000      59.808
  41.9900         44337.000      60.523
  42.0900         44358.000      60.366
  42.1900         44737.000      58.847
  42.2900         44322.000      59.481
  42.3900         44809.000      59.615
  42.4900         44651.000      59.237
  42.5900         43977.000      59.682
  42.6900         44282.000      58.975
  42.7900         44213.000      60.083
  42.8900         44164.000      59.228
  42.9900         44032.000      58.975
  43.0900         44225.000      59.657
  43.1900         44289.000      59.917
  43.2900         43997.000      59.186
  43.3900         44314.000      59.473
  43.4900         44397.000      58.873
  43.5900         44496.000      59.431
  43.6900         44170.000      59.338
  43.7900         44223.000      59.775
  43.8900         44197.000      59.800
  43.9900         44313.000      59.515
  44.0900         44353.000      58.813
  44.1900         44078.000      59.000
  44.2900         44446.000      58.805
  44.3900         44026.000      59.632
  44.4900         44719.000      58.703
  44.5900         44383.000      58.481
  44.6900         44449.000      59.532
  44.7900         44680.000      58.694
  44.8900         44392.000      59.000
  44.9900         44020.000      57.905
  45.0900         44606.000      59.169
  45.1900         43995.000      58.686
  45.2900         44450.000      59.565
  45.3900         44265.000      58.975
  45.4900         44537.000      58.847
  45.5900         44245.000      58.361
  45.6900         44368.000      58.472
  45.7900         44479.000      58.677
  45.8900         44275.000      59.380
  45.9900         44633.000      59.389
  46.0900         44410.000      59.632
  46.1900         44557.000      60.125
  46.2900         44686.000      59.983
  46.3900         44434.000      59.279
  46.4900         44125.000      58.847
  46.5900         44535.000      59.858
  46.6900         44759.000      58.881
  46.7900         44554.000      60.017
  46.8900         44733.000      59.169
  46.9900         44309.000      58.472
  47.0900         44654.000      59.355
  47.1900         45104.000      58.720
  47.2900         44500.000      59.237
  47.3900         44432.000      59.034
  47.4900         44861.000      58.660
  47.5900         45207.000      59.110
  47.6900         45592.000      60.770
  47.7900         46696.000      60.299
  47.8900         47097.000      60.033
  47.9900         46612.000      60.597
  48.0900         45892.000      60.514
  48.1900         44992.000      59.808
  48.2900         45160.000      58.224
  48.3900         44531.000      58.069
  48.4900         44576.000      58.626
  48.5900         44651.000      59.783
