XYDATA SparksLave Co3O4-quenched_550_1.5K 
INTER        1       1       0     0.100000
TEMP       1.60620      1.67620      1.50000
! d1b Date 14-Nov-11 Time 01:20:45 Run 129902 129889>129902
! d1b Date 14-Nov-11 Time 01:20:45 Run 129902 129889>129902
! Monitor/counts, Counting time/sec:  1.27389e+007 1.27389e+007
   0.7900            10.000       1.000
   0.8900             9.000       1.000
   0.9900          2318.000      13.229
   1.0900          2351.000      13.153
   1.1900          2283.000      12.845
   1.2900          2283.000      11.576
   1.3900          2258.000      11.832
   1.4900          2341.000      12.207
   1.5900          2341.000      12.961
   1.6900          2558.000      13.638
   1.7900          3138.000      15.033
   1.8900          4846.000      18.055
   1.9900          7876.000      23.854
   2.0900         10656.000      26.665
   2.1900         13273.000      30.854
   2.2900         16774.000      34.511
   2.3900         21162.000      38.393
   2.4900         25875.000      42.708
   2.5900         30481.000      46.562
   2.6900         34377.000      49.850
   2.7900         38075.000      52.555
   2.8900         41278.000      54.544
   2.9900         44955.000      56.454
   3.0900         48282.000      58.915
   3.1900         50984.000      60.762
   3.2900         52767.000      61.147
   3.3900         53734.000      61.074
   3.4900         52801.000      61.408
   3.5900         51810.000      61.245
   3.6900         51529.000      60.249
   3.7900         50624.000      60.440
   3.8900         49382.000      60.191
   3.9900         51153.000      60.877
   4.0900         50896.000      60.216
   4.1900         50135.000      59.414
   4.2900         50394.000      60.316
   4.3900         50681.000      60.158
   4.4900         51336.000      60.671
   4.5900         53234.000      62.073
   4.6900         55428.000      61.976
   4.7900         58017.000      63.937
   4.8900         60207.000      65.795
   4.9900         62882.000      66.970
   5.0900         64892.000      68.308
   5.1900         67303.000      69.592
   5.2900         69793.000      70.470
   5.3900         71559.000      71.561
   5.4900         73525.000      71.951
   5.5900         75867.000      74.364
   5.6900         77739.000      74.920
   5.7900         79508.000      74.813
   5.8900         81832.000      76.772
   5.9900         83594.000      76.681
   6.0900         84604.000      77.156
   6.1900         85289.000      78.428
   6.2900         85416.000      77.279
   6.3900         84301.000      78.230
   6.4900         84360.000      77.685
   6.5900         83359.000      77.026
   6.6900         83422.000      76.909
   6.7900         82389.000      76.145
   6.8900         82455.000      76.426
   6.9900         82111.000      75.697
   7.0900         80784.000      75.967
   7.1900         79679.000      74.907
   7.2900         79109.000      74.639
   7.3900         78097.000      73.926
   7.4900         76802.000      73.865
   7.5900         75446.000      73.007
   7.6900         75345.000      72.305
   7.7900         74336.000      72.938
   7.8900         72778.000      71.757
   7.9900         71990.000      71.533
   8.0900         70566.000      70.264
   8.1900         70049.000      70.753
   8.2900         69461.000      70.915
   8.3900         68256.000      69.929
   8.4900         67021.000      69.072
   8.5900         65858.000      68.345
   8.6900         65264.000      68.088
   8.7900         64003.000      66.843
   8.8900         62628.000      66.506
   8.9900         62020.000      66.083
   9.0900         61317.000      66.295
   9.1900         60009.000      65.628
   9.2900         59562.000      65.123
   9.3900         58309.000      64.568
   9.4900         57015.000      63.585
   9.5900         56395.000      63.032
   9.6900         55026.000      62.944
   9.7900         53893.000      61.343
   9.8900         52827.000      61.196
   9.9900         52609.000      61.968
  10.0900         51049.000      60.233
  10.1900         50109.000      59.237
  10.2900         49524.000      59.397
  10.3900         48794.000      58.549
  10.4900         48366.000      57.793
  10.5900         47499.000      57.741
  10.6900         46470.000      57.480
  10.7900         46350.000      57.219
  10.8900         45711.000      56.400
  10.9900         44861.000      55.597
  11.0900         45142.000      55.893
  11.1900         44603.000      56.285
  11.2900         44746.000      56.956
  11.3900         44235.000      55.615
  11.4900         44464.000      57.324
  11.5900         44485.000      55.588
  11.6900         44778.000      55.669
  11.7900         44556.000      56.089
  11.8900         44570.000      56.365
  11.9900         44151.000      55.911
  12.0900         44354.000      56.223
  12.1900         43863.000      56.489
  12.2900         43820.000      56.249
  12.3900         44290.000      56.071
  12.4900         44609.000      55.749
  12.5900         44075.000      56.214
  12.6900         43754.000      54.489
  12.7900         44470.000      56.736
  12.8900         44487.000      55.991
  12.9900         43848.000      55.390
  13.0900         43873.000      56.258
  13.1900         44411.000      57.018
  13.2900         44208.000      56.338
  13.3900         43945.000      55.624
  13.4900         43636.000      56.383
  13.5900         43677.000      55.371
  13.6900         43772.000      55.525
  13.7900         43836.000      56.436
  13.8900         44116.000      56.276
  13.9900         44190.000      55.749
  14.0900         43916.000      56.347
  14.1900         43898.000      55.982
  14.2900         43831.000      56.312
  14.3900         44026.000      56.445
  14.4900         44036.000      56.098
  14.5900         43661.000      54.836
  14.6900         43779.000      54.580
  14.7900         44138.000      55.027
  14.8900         44130.000      56.329
  14.9900         43912.000      55.561
  15.0900         43822.000      55.633
  15.1900         45017.000      56.480
  15.2900         45562.000      57.402
  15.3900         45916.000      57.026
  15.4900         46107.000      56.692
  15.5900         45996.000      57.166
  15.6900         44879.000      56.027
  15.7900         44134.000      55.172
  15.8900         43793.000      55.794
  15.9900         43730.000      55.516
  16.0900         44104.000      55.036
  16.1900         43396.000      54.836
  16.2900         43537.000      55.317
  16.3900         43833.000      55.991
  16.4900         44281.000      55.633
  16.5900         44163.000      55.893
  16.6900         44084.000      55.444
  16.7900         43913.000      56.267
  16.8900         44148.000      56.515
  16.9900         43831.000      55.920
  17.0900         43962.000      56.303
  17.1900         43847.000      55.588
  17.2900         43705.000      55.317
  17.3900         43766.000      55.018
  17.4900         44277.000      55.453
  17.5900         44104.000      56.604
  17.6900         44741.000      56.533
  17.7900         45208.000      55.570
  17.8900         45433.000      56.895
  17.9900         45409.000      57.324
  18.0900         44568.000      55.866
  18.1900         44652.000      56.471
  18.2900         44126.000      56.160
  18.3900         43955.000      56.258
  18.4900         44374.000      56.489
  18.5900         44195.000      56.365
  18.6900         44242.000      54.964
  18.7900         44373.000      56.445
  18.8900         44377.000      55.812
  18.9900         44178.000      56.480
  19.0900         43818.000      55.660
  19.1900         43849.000      56.036
  19.2900         44480.000      56.356
  19.3900         43965.000      55.516
  19.4900         44252.000      55.552
  19.5900         44061.000      55.381
  19.6900         44050.000      55.353
  19.7900         44255.000      55.570
  19.8900         44186.000      55.435
  19.9900         44082.000      56.542
  20.0900         44232.000      57.044
  20.1900         44609.000      56.178
  20.2900         44826.000      56.089
  20.3900         44102.000      55.911
  20.4900         44218.000      55.362
  20.5900         44771.000      56.427
  20.6900         44934.000      56.859
  20.7900         44816.000      56.586
  20.8900         44631.000      56.071
  20.9900         44637.000      55.830
  21.0900         44484.000      56.107
  21.1900         44500.000      55.696
  21.2900         44738.000      56.329
  21.3900         44544.000      55.973
  21.4900         44243.000      55.082
  21.5900         44408.000      55.687
  21.6900         44250.000      56.071
  21.7900         44587.000      56.152
  21.8900         44324.000      56.071
  21.9900         44649.000      55.335
  22.0900         44088.000      54.982
  22.1900         44444.000      55.516
  22.2900         44550.000      55.570
  22.3900         44578.000      55.794
  22.4900         44894.000      56.921
  22.5900         44430.000      54.845
  22.6900         44310.000      56.815
  22.7900         44563.000      55.335
  22.8900         44779.000      56.187
  22.9900         44662.000      55.893
  23.0900         44827.000      56.276
  23.1900         44489.000      56.507
  23.2900         44584.000      56.160
  23.3900         44481.000      55.946
  23.4900         44676.000      56.524
  23.5900         44395.000      55.794
  23.6900         44843.000      55.839
  23.7900         45029.000      56.480
  23.8900         45227.000      56.489
  23.9900         45054.000      56.507
  24.0900         45009.000      56.604
  24.1900         44881.000      56.098
  24.2900         44874.000      56.683
  24.3900         44227.000      55.633
  24.4900         44968.000      56.569
  24.5900         44999.000      56.312
  24.6900         44981.000      56.939
  24.7900         44595.000      54.891
  24.8900         44775.000      55.471
  24.9900         44845.000      55.812
  25.0900         45179.000      57.376
  25.1900         44886.000      56.214
  25.2900         45378.000      56.098
  25.3900         45721.000      55.839
  25.4900         45556.000      56.824
  25.5900         45503.000      56.692
  25.6900         45193.000      56.745
  25.7900         45444.000      56.622
  25.8900         45233.000      55.136
  25.9900         45327.000      56.365
  26.0900         45560.000      56.391
  26.1900         45972.000      57.070
  26.2900         45452.000      56.533
  26.3900         45293.000      56.427
  26.4900         45289.000      56.285
  26.5900         45790.000      56.903
  26.6900         45234.000      56.648
  26.7900         45430.000      56.745
  26.8900         44819.000      56.542
  26.9900         45764.000      56.383
  27.0900         45653.000      56.498
  27.1900         45343.000      55.937
  27.2900         45949.000      57.140
  27.3900         45653.000      56.462
  27.4900         46014.000      56.886
  27.5900         45851.000      56.000
  27.6900         45538.000      54.882
  27.7900         46033.000      57.541
  27.8900         45484.000      56.347
  27.9900         45944.000      56.657
  28.0900         45770.000      57.096
  28.1900         46037.000      56.745
  28.2900         46046.000      57.454
  28.3900         45969.000      57.559
  28.4900         46117.000      58.034
  28.5900         46034.000      56.939
  28.6900         46031.000      56.798
  28.7900         46533.000      57.088
  28.8900         46150.000      57.061
  28.9900         46213.000      57.359
  29.0900         46382.000      57.061
  29.1900         46403.000      56.586
  29.2900         46687.000      57.974
  29.3900         46306.000      56.276
  29.4900         46450.000      57.593
  29.5900         46614.000      58.241
  29.6900         46713.000      57.114
  29.7900         47687.000      57.775
  29.8900         47823.000      57.784
  29.9900         48849.000      58.121
  30.0900         48624.000      58.103
  30.1900         48463.000      58.634
  30.2900         48657.000      58.745
  30.3900         49023.000      58.915
  30.4900         49967.000      59.068
  30.5900         50804.000      60.258
  30.6900         52094.000      59.624
  30.7900         55406.000      62.706
  30.8900         60779.000      64.931
  30.9900         71236.000      70.335
  31.0900         86499.000      77.608
  31.1900        103617.000      85.129
  31.2900        116408.000      91.038
  31.3900        115198.000      90.200
  31.4900        101496.000      84.083
  31.5900         82740.000      75.967
  31.6900         68772.000      69.914
  31.7900         59330.000      64.707
  31.8900         54316.000      62.306
  31.9900         51696.000      60.324
  32.0900         50089.000      59.666
  32.1900         49556.000      59.473
  32.2900         48546.000      58.146
  32.3900         48126.000      58.060
  32.4900         48272.000      58.949
  32.5900         47752.000      57.498
  32.6900         47459.000      58.017
  32.7900         47357.000      57.576
  32.8900         47204.000      56.851
  32.9900         47124.000      58.155
  33.0900         46875.000      57.541
  33.1900         46997.000      57.254
  33.2900         46691.000      57.359
  33.3900         46955.000      56.666
  33.4900         46925.000      56.657
  33.5900         46860.000      57.515
  33.6900         46612.000      56.267
  33.7900         46890.000      56.710
  33.8900         46861.000      58.043
  33.9900         47107.000      56.507
  34.0900         47297.000      57.454
  34.1900         47627.000      57.827
  34.2900         47258.000      57.697
  34.3900         46557.000      56.754
  34.4900         47196.000      58.189
  34.5900         46819.000      57.628
  34.6900         46684.000      56.595
  34.7900         47142.000      56.312
  34.8900         47362.000      56.877
  34.9900         47099.000      56.974
  35.0900         47162.000      57.463
  35.1900         47464.000      57.184
  35.2900         48017.000      57.871
  35.3900         47295.000      57.193
  35.4900         48066.000      58.241
  35.5900         48904.000      58.438
  35.6900         49877.000      59.674
  35.7900         51553.000      59.548
  35.8900         53512.000      61.294
  35.9900         58844.000      64.164
  36.0900         64883.000      68.557
  36.1900         73305.000      72.429
  36.2900         80037.000      75.213
  36.3900         82125.000      77.104
  36.4900         76982.000      73.342
  36.5900         69601.000      69.369
  36.6900         62439.000      65.696
  36.7900         56865.000      62.944
  36.8900         52625.000      60.877
  36.9900         51184.000      60.366
  37.0900         49659.000      58.189
  37.1900         48746.000      58.078
  37.2900         48122.000      57.836
  37.3900         47769.000      57.306
  37.4900         47501.000      57.210
  37.5900         47274.000      56.877
  37.6900         47185.000      56.604
  37.7900         46359.000      57.193
  37.8900         46333.000      56.798
  37.9900         46333.000      57.018
  38.0900         46402.000      57.201
  38.1900         46324.000      57.315
  38.2900         46105.000      56.489
  38.3900         46311.000      56.249
  38.4900         46594.000      56.965
  38.5900         46361.000      56.692
  38.6900         46341.000      55.714
  38.7900         46379.000      56.134
  38.8900         46318.000      56.125
  38.9900         46627.000      57.359
  39.0900         46292.000      56.560
  39.1900         46480.000      56.098
  39.2900         46295.000      56.480
  39.3900         46994.000      57.359
  39.4900         46559.000      57.480
  39.5900         46843.000      57.158
  39.6900         46941.000      57.096
  39.7900         46933.000      56.622
  39.8900         46306.000      55.642
  39.9900         46593.000      56.736
  40.0900         46293.000      57.088
  40.1900         46189.000      56.991
  40.2900         46806.000      56.285
  40.3900         46215.000      56.586
  40.4900         46524.000      56.471
  40.5900         46405.000      56.462
  40.6900         46218.000      56.178
  40.7900         46564.000      56.356
  40.8900         46512.000      56.249
  40.9900         46481.000      57.767
  41.0900         46484.000      57.026
  41.1900         46132.000      56.232
  41.2900         46666.000      57.088
  41.3900         46118.000      56.160
  41.4900         46376.000      56.196
  41.5900         46054.000      56.241
  41.6900         46032.000      55.920
  41.7900         46291.000      55.218
  41.8900         46677.000      57.158
  41.9900         46071.000      55.785
  42.0900         46514.000      56.436
  42.1900         46688.000      56.754
  42.2900         45796.000      55.830
  42.3900         46674.000      56.727
  42.4900         46224.000      56.675
  42.5900         46264.000      56.489
  42.6900         46099.000      55.991
  42.7900         46333.000      56.595
  42.8900         46247.000      56.613
  42.9900         46508.000      55.866
  43.0900         46421.000      55.651
  43.1900         46246.000      57.359
  43.2900         46409.000      55.597
  43.3900         46623.000      56.692
  43.4900         46271.000      56.666
  43.5900         46648.000      56.125
  43.6900         46380.000      56.285
  43.7900         46247.000      55.920
  43.8900         46368.000      55.687
  43.9900         46127.000      56.143
  44.0900         46426.000      55.830
  44.1900         46337.000      56.657
  44.2900         46647.000      56.507
  44.3900         46403.000      55.489
  44.4900         46599.000      56.356
  44.5900         46429.000      56.080
  44.6900         46372.000      55.308
  44.7900         46980.000      56.232
  44.8900         46063.000      55.955
  44.9900         46782.000      56.507
  45.0900         46306.000      55.480
  45.1900         46555.000      56.489
  45.2900         46633.000      55.480
  45.3900         46696.000      56.542
  45.4900         46487.000      56.187
  45.5900         46345.000      55.758
  45.6900         46356.000      56.515
  45.7900         46493.000      55.606
  45.8900         46185.000      55.669
  45.9900         46891.000      55.776
  46.0900         46162.000      55.866
  46.1900         46805.000      56.312
  46.2900         46847.000      56.701
  46.3900         46755.000      56.249
  46.4900         46871.000      55.390
  46.5900         46881.000      55.955
  46.6900         46369.000      56.383
  46.7900         46888.000      56.868
  46.8900         47006.000      55.606
  46.9900         46578.000      57.254
  47.0900         47178.000      56.524
  47.1900         46703.000      56.498
  47.2900         47019.000      56.939
  47.3900         46667.000      55.848
  47.4900         47122.000      56.267
  47.5900         47818.000      56.267
  47.6900         48795.000      57.775
  47.7900         49518.000      58.694
  47.8900         49969.000      58.301
  47.9900         49215.000      57.210
  48.0900         47918.000      57.454
  48.1900         47528.000      56.498
  48.2900         47146.000      56.116
  48.3900         47170.000      56.498
  48.4900         47486.000      56.249
  48.5900         46901.000      55.839
