XYDATA SparksLave Co-quenched_550_300K 
INTER        1       1       0     0.100000
TEMP       297.360      300.180      300.000
! d1b Date 15-Nov-11 Time 13:49:35 Run 130045 130034>130045
! d1b Date 15-Nov-11 Time 13:49:35 Run 130045 130034>130045
! Monitor/counts, Counting time/sec:  1.09514e+007 1.09514e+007
   0.7900             9.000       1.000
   0.8900             4.000       1.000
   0.9900          1939.000      12.288
   1.0900          1972.000      12.490
   1.1900          1986.000      12.923
   1.2900          1877.000      12.689
   1.3900          1946.000      12.961
   1.4900          2042.000      13.565
   1.5900          1981.000      12.649
   1.6900          2190.000      14.071
   1.7900          2610.000      14.457
   1.8900          4128.000      18.276
   1.9900          6757.000      23.516
   2.0900          9037.000      26.814
   2.1900         11398.000      30.348
   2.2900         14509.000      34.496
   2.3900         18241.000      39.547
   2.4900         22454.000      42.685
   2.5900         25920.000      46.755
   2.6900         29537.000      49.275
   2.7900         32676.000      52.269
   2.8900         35297.000      54.635
   2.9900         38394.000      56.701
   3.0900         41285.000      58.677
   3.1900         44123.000      61.115
   3.2900         46325.000      61.806
   3.3900         46352.000      62.378
   3.4900         46045.000      61.571
   3.5900         45361.000      61.303
   3.6900         44084.000      59.841
   3.7900         43739.000      60.975
   3.8900         43592.000      59.641
   3.9900         42890.000      59.825
   4.0900         42815.000      60.332
   4.1900         43239.000      59.766
   4.2900         43478.000      59.649
   4.3900         43380.000      60.390
   4.4900         44081.000      60.382
   4.5900         45388.000      61.016
   4.6900         47939.000      62.578
   4.7900         49660.000      64.078
   4.8900         52607.000      65.498
   4.9900         54936.000      67.882
   5.0900         57192.000      69.022
   5.1900         59873.000      71.218
   5.2900         62149.000      72.443
   5.3900         64216.000      73.034
   5.4900         66498.000      74.545
   5.5900         69130.000      75.286
   5.6900         70615.000      76.105
   5.7900         72531.000      78.166
   5.8900         73616.000      78.301
   5.9900         75870.000      80.529
   6.0900         77569.000      80.281
   6.1900         78279.000      80.629
   6.2900         77333.000      80.399
   6.3900         76794.000      79.793
   6.4900         77046.000      79.906
   6.5900         75827.000      79.429
   6.6900         75374.000      79.145
   6.7900         74546.000      79.404
   6.8900         74116.000      78.949
   6.9900         73843.000      78.600
   7.0900         72487.000      77.201
   7.1900         72001.000      77.440
   7.2900         71316.000      76.948
   7.3900         70359.000      76.177
   7.4900         69338.000      76.276
   7.5900         68461.000      75.756
   7.6900         67910.000      75.697
   7.7900         67063.000      74.993
   7.8900         66072.000      73.912
   7.9900         65196.000      74.061
   8.0900         63902.000      72.609
   8.1900         63180.000      72.993
   8.2900         62751.000      71.750
   8.3900         61248.000      71.442
   8.4900         60893.000      71.610
   8.5900         59660.000      70.732
   8.6900         58779.000      70.221
   8.7900         57634.000      69.166
   8.8900         57457.000      69.448
   8.9900         56500.000      68.542
   9.0900         56030.000      68.059
   9.1900         54511.000      68.015
   9.2900         53388.000      66.355
   9.3900         52944.000      66.963
   9.4900         52304.000      65.719
   9.5900         50891.000      64.265
   9.6900         49718.000      65.445
   9.7900         49259.000      65.069
   9.8900         47906.000      63.364
   9.9900         47344.000      63.246
  10.0900         47036.000      63.726
  10.1900         45579.000      62.161
  10.2900         44943.000      61.123
  10.3900         43782.000      61.522
  10.4900         43516.000      60.407
  10.5900         43120.000      60.299
  10.6900         42429.000      59.933
  10.7900         41907.000      59.296
  10.8900         41391.000      58.907
  10.9900         41126.000      58.549
  11.0900         40915.000      58.839
  11.1900         41143.000      59.220
  11.2900         40718.000      58.941
  11.3900         40821.000      58.541
  11.4900         40556.000      57.663
  11.5900         40488.000      58.395
  11.6900         40449.000      58.292
  11.7900         40625.000      58.856
  11.8900         40273.000      57.715
  11.9900         40055.000      57.480
  12.0900         40307.000      57.896
  12.1900         39971.000      57.297
  12.2900         40373.000      57.862
  12.3900         40150.000      57.297
  12.4900         40407.000      58.284
  12.5900         40590.000      58.660
  12.6900         40002.000      57.723
  12.7900         39689.000      57.079
  12.8900         40039.000      57.732
  12.9900         39923.000      57.541
  13.0900         39964.000      57.619
  13.1900         39775.000      58.686
  13.2900         40375.000      58.549
  13.3900         40019.000      57.983
  13.4900         40071.000      57.593
  13.5900         40122.000      57.131
  13.6900         39873.000      58.052
  13.7900         40087.000      57.576
  13.8900         40356.000      58.318
  13.9900         40006.000      58.541
  14.0900         40085.000      58.215
  14.1900         39953.000      57.463
  14.2900         40143.000      56.622
  14.3900         39566.000      57.784
  14.4900         39803.000      57.619
  14.5900         39717.000      57.741
  14.6900         39763.000      57.254
  14.7900         40276.000      57.645
  14.8900         39616.000      57.619
  14.9900         39547.000      57.463
  15.0900         40038.000      58.558
  15.1900         40637.000      58.335
  15.2900         40487.000      57.689
  15.3900         40522.000      58.532
  15.4900         40899.000      58.703
  15.5900         40416.000      58.095
  15.6900         39959.000      57.489
  15.7900         39759.000      57.158
  15.8900         39878.000      57.576
  15.9900         40024.000      57.784
  16.0900         39839.000      57.845
  16.1900         39712.000      58.146
  16.2900         39947.000      57.991
  16.3900         39932.000      58.164
  16.4900         39670.000      57.140
  16.5900         39780.000      57.819
  16.6900         39904.000      58.378
  16.7900         39806.000      57.446
  16.8900         39937.000      57.515
  16.9900         39615.000      58.181
  17.0900         39710.000      56.974
  17.1900         39933.000      57.193
  17.2900         40165.000      57.515
  17.3900         39371.000      57.026
  17.4900         39850.000      57.000
  17.5900         39669.000      57.680
  17.6900         40083.000      57.332
  17.7900         39866.000      57.420
  17.8900         40158.000      58.907
  17.9900         40183.000      58.078
  18.0900         40108.000      57.663
  18.1900         39779.000      58.017
  18.2900         39858.000      57.645
  18.3900         40130.000      57.628
  18.4900         39792.000      58.052
  18.5900         40056.000      57.896
  18.6900         39861.000      57.637
  18.7900         39865.000      57.402
  18.8900         39694.000      57.645
  18.9900         40194.000      57.957
  19.0900         39848.000      57.332
  19.1900         39878.000      57.741
  19.2900         39534.000      57.489
  19.3900         39311.000      56.169
  19.4900         40093.000      57.332
  19.5900         39997.000      57.035
  19.6900         39894.000      58.060
  19.7900         39959.000      57.489
  19.8900         40276.000      57.767
  19.9900         39557.000      57.948
  20.0900         39856.000      56.771
  20.1900         39779.000      57.784
  20.2900         39764.000      58.378
  20.3900         39883.000      57.350
  20.4900         40291.000      58.129
  20.5900         39609.000      57.671
  20.6900         40120.000      57.871
  20.7900         40262.000      57.350
  20.8900         40096.000      56.991
  20.9900         39787.000      57.775
  21.0900         39970.000      57.611
  21.1900         40228.000      57.332
  21.2900         39791.000      56.692
  21.3900         40017.000      57.611
  21.4900         39863.000      57.201
  21.5900         39789.000      57.297
  21.6900         40119.000      58.121
  21.7900         40017.000      57.715
  21.8900         39835.000      57.888
  21.9900         39646.000      57.454
  22.0900         39794.000      57.689
  22.1900         39772.000      57.567
  22.2900         39373.000      57.166
  22.3900         39767.000      58.078
  22.4900         39969.000      58.447
  22.5900         39304.000      57.654
  22.6900         40058.000      57.000
  22.7900         39833.000      57.654
  22.8900         39814.000      57.324
  22.9900         39842.000      57.931
  23.0900         39584.000      57.602
  23.1900         39768.000      56.701
  23.2900         39802.000      57.940
  23.3900         40294.000      58.034
  23.4900         39917.000      58.129
  23.5900         39880.000      57.966
  23.6900         39502.000      57.853
  23.7900         39885.000      57.567
  23.8900         40315.000      57.836
  23.9900         40133.000      57.689
  24.0900         40006.000      57.611
  24.1900         39954.000      57.105
  24.2900         40022.000      57.454
  24.3900         39827.000      56.877
  24.4900         39970.000      58.600
  24.5900         40075.000      58.310
  24.6900         39645.000      57.193
  24.7900         39412.000      57.645
  24.8900         40499.000      57.758
  24.9900         39875.000      57.263
  25.0900         39592.000      57.149
  25.1900         40686.000      58.060
  25.2900         40188.000      58.609
  25.3900         40387.000      57.991
  25.4900         40367.000      57.888
  25.5900         40143.000      58.301
  25.6900         39940.000      57.489
  25.7900         39915.000      57.533
  25.8900         40128.000      57.793
  25.9900         40099.000      57.175
  26.0900         40313.000      58.686
  26.1900         40406.000      57.411
  26.2900         39721.000      57.236
  26.3900         39707.000      58.017
  26.4900         40160.000      58.779
  26.5900         40142.000      57.480
  26.6900         39476.000      56.622
  26.7900         40151.000      57.149
  26.8900         39523.000      57.888
  26.9900         40133.000      58.103
  27.0900         40012.000      58.455
  27.1900         39996.000      58.034
  27.2900         40002.000      58.052
  27.3900         39831.000      57.593
  27.4900         40049.000      58.060
  27.5900         39866.000      58.626
  27.6900         39923.000      56.877
  27.7900         39797.000      57.175
  27.8900         40094.000      58.207
  27.9900         40047.000      57.940
  28.0900         40015.000      57.793
  28.1900         40081.000      57.193
  28.2900         39829.000      58.327
  28.3900         40278.000      57.749
  28.4900         40073.000      57.123
  28.5900         39986.000      58.078
  28.6900         40406.000      58.890
  28.7900         40340.000      57.827
  28.8900         40093.000      57.871
  28.9900         40129.000      58.609
  29.0900         40371.000      57.645
  29.1900         40057.000      57.541
  29.2900         40397.000      57.991
  29.3900         39941.000      57.819
  29.4900         40238.000      58.103
  29.5900         40259.000      57.991
  29.6900         40725.000      58.412
  29.7900         40609.000      58.224
  29.8900         41676.000      58.626
  29.9900         41245.000      58.181
  30.0900         41154.000      59.076
  30.1900         40677.000      58.515
  30.2900         41046.000      59.119
  30.3900         41167.000      58.864
  30.4900         41156.000      59.068
  30.5900         41469.000      59.287
  30.6900         42270.000      59.296
  30.7900         43976.000      61.343
  30.8900         46406.000      61.604
  30.9900         51288.000      65.353
  31.0900         59494.000      69.764
  31.1900         68189.000      75.386
  31.2900         72752.000      77.531
  31.3900         69601.000      77.026
  31.4900         60793.000      71.861
  31.5900         52215.000      65.970
  31.6900         46692.000      63.553
  31.7900         43443.000      60.943
  31.8900         42377.000      59.397
  31.9900         41423.000      58.686
  32.0900         40892.000      59.000
  32.1900         40988.000      58.327
  32.2900         40722.000      59.042
  32.3900         40669.000      58.583
  32.4900         40512.000      57.706
  32.5900         40775.000      58.839
  32.6900         40331.000      57.991
  32.7900         40453.000      57.810
  32.8900         40102.000      57.515
  32.9900         39927.000      57.271
  33.0900         39997.000      57.271
  33.1900         40222.000      58.847
  33.2900         40001.000      57.149
  33.3900         40240.000      57.385
  33.4900         39963.000      57.689
  33.5900         40053.000      56.965
  33.6900         40641.000      57.914
  33.7900         40254.000      56.763
  33.8900         39986.000      58.737
  33.9900         40137.000      58.172
  34.0900         40617.000      57.070
  34.1900         40932.000      59.085
  34.2900         40691.000      58.327
  34.3900         40388.000      57.948
  34.4900         40322.000      56.939
  34.5900         40456.000      57.940
  34.6900         40131.000      57.637
  34.7900         39525.000      57.567
  34.8900         39884.000      57.940
  34.9900         40002.000      58.643
  35.0900         39801.000      57.836
  35.1900         39598.000      57.123
  35.2900         39974.000      58.224
  35.3900         40124.000      57.767
  35.4900         39926.000      57.671
  35.5900         39964.000      57.671
  35.6900         40088.000      58.720
  35.7900         39755.000      57.654
  35.8900         40374.000      58.155
  35.9900         40746.000      58.043
  36.0900         42067.000      59.557
  36.1900         43662.000      60.556
  36.2900         45616.000      61.927
  36.3900         44839.000      61.319
  36.4900         43060.000      59.733
  36.5900         41393.000      58.864
  36.6900         40085.000      57.914
  36.7900         40058.000      56.877
  36.8900         39834.000      58.086
  36.9900         39602.000      57.359
  37.0900         39809.000      58.318
  37.1900         39791.000      57.637
  37.2900         39269.000      56.956
  37.3900         39644.000      58.181
  37.4900         39668.000      57.236
  37.5900         39847.000      56.974
  37.6900         39495.000      56.391
  37.7900         39773.000      57.706
  37.8900         39537.000      57.105
  37.9900         39552.000      57.515
  38.0900         39695.000      57.184
  38.1900         39848.000      58.284
  38.2900         39722.000      58.352
  38.3900         39321.000      56.436
  38.4900         39799.000      57.263
  38.5900         39330.000      56.205
  38.6900         39286.000      57.026
  38.7900         39312.000      57.271
  38.8900         39587.000      57.228
  38.9900         39602.000      57.966
  39.0900         39488.000      58.335
  39.1900         39302.000      57.567
  39.2900         39409.000      57.637
  39.3900         39340.000      57.280
  39.4900         39831.000      57.593
  39.5900         39964.000      58.378
  39.6900         39664.000      57.576
  39.7900         39989.000      58.060
  39.8900         39592.000      57.749
  39.9900         39149.000      57.000
  40.0900         39150.000      57.463
  40.1900         39428.000      56.789
  40.2900         39812.000      57.297
  40.3900         39188.000      58.138
  40.4900         39191.000      56.657
  40.5900         39193.000      56.868
  40.6900         38779.000      57.131
  40.7900         39251.000      57.341
  40.8900         38962.000      56.258
  40.9900         39223.000      56.427
  41.0900         39092.000      57.507
  41.1900         39090.000      57.263
  41.2900         39202.000      57.637
  41.3900         38760.000      57.853
  41.4900         39550.000      57.472
  41.5900         39227.000      57.463
  41.6900         39400.000      57.428
  41.7900         39099.000      57.567
  41.8900         39348.000      57.236
  41.9900         39301.000      57.061
  42.0900         38918.000      56.947
  42.1900         39364.000      57.297
  42.2900         38887.000      57.026
  42.3900         39097.000      57.359
  42.4900         38982.000      57.758
  42.5900         39019.000      57.184
  42.6900         38526.000      56.445
  42.7900         38973.000      57.210
  42.8900         39312.000      57.219
  42.9900         39081.000      56.639
  43.0900         39192.000      57.437
  43.1900         39342.000      57.541
  43.2900         39206.000      57.576
  43.3900         39129.000      56.595
  43.4900         38768.000      56.586
  43.5900         39101.000      56.745
  43.6900         39136.000      57.489
  43.7900         38944.000      56.719
  43.8900         39163.000      57.480
  43.9900         39126.000      57.184
  44.0900         39305.000      57.359
  44.1900         39318.000      56.815
  44.2900         38978.000      56.974
  44.3900         38467.000      56.223
  44.4900         38918.000      56.666
  44.5900         39012.000      56.613
  44.6900         38742.000      56.965
  44.7900         38903.000      57.096
  44.8900         39126.000      57.009
  44.9900         39321.000      57.437
  45.0900         39001.000      56.471
  45.1900         38898.000      56.462
  45.2900         39186.000      57.732
  45.3900         39305.000      57.888
  45.4900         39385.000      57.341
  45.5900         39002.000      57.602
  45.6900         39179.000      58.241
  45.7900         39260.000      57.070
  45.8900         39005.000      56.489
  45.9900         38992.000      57.793
  46.0900         38865.000      56.169
  46.1900         38902.000      57.228
  46.2900         38969.000      57.088
  46.3900         38927.000      57.263
  46.4900         38785.000      56.771
  46.5900         38757.000      57.228
  46.6900         39185.000      57.324
  46.7900         39120.000      56.613
  46.8900         39231.000      57.280
  46.9900         39259.000      57.131
  47.0900         39243.000      57.254
  47.1900         38962.000      56.498
  47.2900         39532.000      57.306
  47.3900         38943.000      57.420
  47.4900         39251.000      56.205
  47.5900         40318.000      58.421
  47.6900         41191.000      58.481
  47.7900         41737.000      59.565
  47.8900         41176.000      58.600
  47.9900         40197.000      57.645
  48.0900         39701.000      57.819
  48.1900         39157.000      56.903
  48.2900         39483.000      57.411
  48.3900         39134.000      57.428
  48.4900         38931.000      57.158
  48.5900         38929.000      56.666
  48.6900         38960.000      57.201
