XYDATA SparksLave Co3O4-quenched_550_100K 
INTER        1       1       0     0.100000
TEMP       99.7940      100.004      100.000
! d1b Date 14-Nov-11 Time 04:05:27 Run 129916 129903>129916
! d1b Date 14-Nov-11 Time 04:05:27 Run 129916 129903>129916
! Monitor/counts, Counting time/sec:  1.26868e+007 1.26868e+007
   0.7900             5.000       1.000
   0.8900             7.000       1.000
   0.9900          2321.000      13.304
   1.0900          2357.000      11.916
   1.1900          2337.000      12.610
   1.2900          2215.000      12.369
   1.3900          2196.000      12.806
   1.4900          2279.000      12.610
   1.5900          2340.000      12.689
   1.6900          2461.000      13.820
   1.7900          3116.000      14.832
   1.8900          4998.000      19.235
   1.9900          7736.000      24.125
   2.0900         10374.000      26.777
   2.1900         13194.000      29.933
   2.2900         16572.000      35.285
   2.3900         21246.000      39.319
   2.4900         25507.000      43.174
   2.5900         29940.000      45.880
   2.6900         34307.000      50.170
   2.7900         38109.000      52.288
   2.8900         40827.000      54.727
   2.9900         44317.000      56.657
   3.0900         47954.000      58.241
   3.1900         50914.000      60.926
   3.2900         53083.000      61.408
   3.3900         53341.000      61.262
   3.4900         52559.000      61.449
   3.5900         52267.000      61.188
   3.6900         51409.000      60.083
   3.7900         50732.000      60.556
   3.8900         49745.000      59.119
   3.9900         51287.000      60.589
   4.0900         50525.000      59.506
   4.1900         50249.000      60.498
   4.2900         50294.000      60.762
   4.3900         50510.000      59.908
   4.4900         51114.000      60.374
   4.5900         53270.000      60.795
   4.6900         56136.000      63.182
   4.7900         58005.000      64.117
   4.8900         61008.000      66.159
   4.9900         63707.000      67.134
   5.0900         66332.000      68.848
   5.1900         68495.000      70.760
   5.2900         71474.000      71.575
   5.3900         73712.000      73.451
   5.4900         76013.000      74.020
   5.5900         78218.000      74.653
   5.6900         80795.000      75.928
   5.7900         81851.000      76.896
   5.8900         84180.000      77.730
   5.9900         85697.000      79.013
   6.0900         87398.000      78.689
   6.1900         87554.000      79.310
   6.2900         87316.000      78.880
   6.3900         86933.000      78.467
   6.4900         86306.000      79.762
   6.5900         86558.000      78.498
   6.6900         85578.000      78.696
   6.7900         84466.000      77.814
   6.8900         83964.000      77.692
   6.9900         83865.000      76.935
   7.0900         82790.000      76.276
   7.1900         81865.000      76.250
   7.2900         80994.000      76.655
   7.3900         80004.000      76.158
   7.4900         78697.000      75.485
   7.5900         77905.000      74.579
   7.6900         76990.000      74.518
   7.7900         75603.000      73.103
   7.8900         74801.000      72.870
   7.9900         73670.000      72.422
   8.0900         72363.000      71.035
   8.1900         71349.000      70.972
   8.2900         70803.000      70.363
   8.3900         69524.000      70.449
   8.4900         68465.000      69.699
   8.5900         68259.000      69.828
   8.6900         66788.000      68.906
   8.7900         65953.000      68.000
   8.8900         64813.000      67.424
   8.9900         63718.000      67.816
   9.0900         62522.000      67.454
   9.1900         61827.000      66.506
   9.2900         60191.000      65.376
   9.3900         59381.000      64.645
   9.4900         58631.000      64.722
   9.5900         57616.000      64.273
   9.6900         56113.000      62.984
   9.7900         55934.000      63.000
   9.8900         54587.000      62.650
   9.9900         53655.000      61.327
  10.0900         52654.000      60.754
  10.1900         51613.000      61.016
  10.2900         50935.000      60.291
  10.3900         49889.000      59.338
  10.4900         49094.000      59.397
  10.5900         48373.000      58.703
  10.6900         47796.000      58.000
  10.7900         47462.000      57.428
  10.8900         46262.000      56.710
  10.9900         46402.000      56.683
  11.0900         46606.000      57.567
  11.1900         45717.000      57.026
  11.2900         46003.000      56.939
  11.3900         45669.000      56.267
  11.4900         45713.000      56.789
  11.5900         45638.000      57.385
  11.6900         45543.000      56.595
  11.7900         45530.000      57.236
  11.8900         45435.000      57.341
  11.9900         45812.000      56.595
  12.0900         45185.000      56.187
  12.1900         45697.000      56.974
  12.2900         45239.000      56.454
  12.3900         45362.000      55.929
  12.4900         45551.000      57.271
  12.5900         45571.000      56.107
  12.6900         45331.000      57.559
  12.7900         45272.000      56.807
  12.8900         45257.000      57.193
  12.9900         45406.000      57.931
  13.0900         44983.000      56.462
  13.1900         45058.000      56.701
  13.2900         44855.000      56.542
  13.3900         45062.000      55.839
  13.4900         44639.000      55.875
  13.5900         44671.000      56.586
  13.6900         45022.000      55.893
  13.7900         45462.000      56.409
  13.8900         44926.000      56.285
  13.9900         44909.000      56.982
  14.0900         45401.000      57.297
  14.1900         45182.000      56.134
  14.2900         45105.000      56.675
  14.3900         45179.000      57.254
  14.4900         45366.000      56.187
  14.5900         44513.000      55.597
  14.6900         44921.000      56.895
  14.7900         45209.000      55.507
  14.8900         45205.000      56.462
  14.9900         45050.000      57.236
  15.0900         45228.000      56.859
  15.1900         45314.000      57.741
  15.2900         45699.000      57.853
  15.3900         46330.000      57.245
  15.4900         46398.000      56.939
  15.5900         45865.000      57.341
  15.6900         45502.000      56.524
  15.7900         44939.000      55.803
  15.8900         44766.000      56.939
  15.9900         44972.000      56.241
  16.0900         44726.000      55.651
  16.1900         45196.000      56.586
  16.2900         44825.000      56.321
  16.3900         44665.000      55.687
  16.4900         45087.000      56.515
  16.5900         45099.000      56.877
  16.6900         44926.000      56.471
  16.7900         45136.000      57.140
  16.8900         45090.000      56.489
  16.9900         45099.000      57.018
  17.0900         44964.000      56.533
  17.1900         45057.000      56.630
  17.2900         44940.000      55.821
  17.3900         44928.000      56.533
  17.4900         45468.000      56.498
  17.5900         45154.000      56.365
  17.6900         45398.000      57.402
  17.7900         45237.000      56.196
  17.8900         45472.000      56.303
  17.9900         45650.000      56.754
  18.0900         45498.000      57.026
  18.1900         45639.000      57.061
  18.2900         45300.000      56.877
  18.3900         45079.000      56.710
  18.4900         45680.000      56.409
  18.5900         45800.000      56.551
  18.6900         45520.000      56.196
  18.7900         45447.000      56.701
  18.8900         45134.000      55.516
  18.9900         45565.000      57.018
  19.0900         45195.000      56.613
  19.1900         45622.000      56.727
  19.2900         45624.000      56.507
  19.3900         45277.000      56.134
  19.4900         44992.000      55.848
  19.5900         45120.000      56.418
  19.6900         45712.000      57.585
  19.7900         45240.000      56.436
  19.8900         45458.000      56.027
  19.9900         45456.000      56.798
  20.0900         45343.000      56.595
  20.1900         45293.000      56.763
  20.2900         45771.000      57.044
  20.3900         45436.000      56.754
  20.4900         45376.000      57.026
  20.5900         45871.000      57.018
  20.6900         46019.000      57.550
  20.7900         45765.000      57.105
  20.8900         45831.000      56.409
  20.9900         45852.000      57.175
  21.0900         45774.000      56.507
  21.1900         45478.000      56.276
  21.2900         45878.000      56.018
  21.3900         45048.000      56.285
  21.4900         45825.000      57.061
  21.5900         45714.000      57.166
  21.6900         45688.000      56.524
  21.7900         45716.000      57.922
  21.8900         45845.000      56.071
  21.9900         45279.000      56.815
  22.0900         45927.000      57.411
  22.1900         45343.000      55.740
  22.2900         45035.000      56.321
  22.3900         45205.000      57.131
  22.4900         45600.000      56.912
  22.5900         45698.000      55.857
  22.6900         45884.000      56.303
  22.7900         45832.000      56.719
  22.8900         45693.000      56.454
  22.9900         45685.000      56.895
  23.0900         46020.000      57.123
  23.1900         45992.000      56.365
  23.2900         45676.000      57.315
  23.3900         45649.000      57.428
  23.4900         45633.000      56.560
  23.5900         45765.000      57.114
  23.6900         45821.000      55.660
  23.7900         46636.000      57.775
  23.8900         46308.000      57.315
  23.9900         46095.000      57.184
  24.0900         45989.000      56.657
  24.1900         46012.000      56.886
  24.2900         45769.000      57.428
  24.3900         45731.000      56.471
  24.4900         45397.000      56.701
  24.5900         45755.000      57.219
  24.6900         46241.000      57.026
  24.7900         45829.000      57.437
  24.8900         45792.000      56.947
  24.9900         46207.000      56.912
  25.0900         45680.000      56.515
  25.1900         46350.000      56.515
  25.2900         46108.000      57.376
  25.3900         47089.000      58.267
  25.4900         46597.000      58.361
  25.5900         46566.000      57.393
  25.6900         45958.000      57.131
  25.7900         46353.000      57.193
  25.8900         46070.000      58.198
  25.9900         46244.000      56.939
  26.0900         46107.000      56.824
  26.1900         46477.000      57.385
  26.2900         46056.000      56.903
  26.3900         46087.000      57.931
  26.4900         45944.000      57.236
  26.5900         46233.000      56.675
  26.6900         46542.000      57.671
  26.7900         46022.000      57.070
  26.8900         46152.000      57.009
  26.9900         46288.000      56.294
  27.0900         46227.000      57.767
  27.1900         45986.000      57.009
  27.2900         46221.000      57.254
  27.3900         46295.000      57.428
  27.4900         46610.000      56.771
  27.5900         46171.000      57.611
  27.6900         46086.000      57.585
  27.7900         46245.000      56.912
  27.8900         46376.000      57.026
  27.9900         46342.000      57.446
  28.0900         45582.000      56.009
  28.1900         46217.000      58.009
  28.2900         46599.000      58.481
  28.3900         46401.000      57.166
  28.4900         45969.000      57.393
  28.5900         46209.000      56.930
  28.6900         46397.000      57.871
  28.7900         46077.000      57.263
  28.8900         46496.000      56.956
  28.9900         45942.000      57.593
  29.0900         46681.000      57.758
  29.1900         46584.000      57.602
  29.2900         46203.000      56.763
  29.3900         46288.000      56.895
  29.4900         46615.000      58.404
  29.5900         46537.000      57.619
  29.6900         46686.000      56.639
  29.7900         46576.000      57.359
  29.8900         47472.000      58.532
  29.9900         47279.000      57.948
  30.0900         47366.000      57.836
  30.1900         47368.000      59.178
  30.2900         46810.000      56.471
  30.3900         47420.000      57.210
  30.4900         47458.000      58.267
  30.5900         47990.000      58.754
  30.6900         48392.000      57.767
  30.7900         49915.000      59.565
  30.8900         52265.000      60.984
  30.9900         57773.000      64.467
  31.0900         66399.000      68.425
  31.1900         76235.000      72.856
  31.2900         84370.000      78.134
  31.3900         83276.000      77.052
  31.4900         74267.000      72.883
  31.5900         63280.000      66.791
  31.6900         55533.000      62.746
  31.7900         51078.000      60.473
  31.8900         49044.000      58.813
  31.9900         47665.000      58.258
  32.0900         47415.000      57.663
  32.1900         47432.000      57.810
  32.2900         47011.000      57.957
  32.3900         46894.000      57.359
  32.4900         47030.000      57.411
  32.5900         46690.000      58.189
  32.6900         46512.000      56.886
  32.7900         46604.000      56.798
  32.8900         46723.000      57.879
  32.9900         46196.000      57.236
  33.0900         46515.000      57.931
  33.1900         45949.000      56.480
  33.2900         46288.000      56.745
  33.3900         46417.000      57.463
  33.4900         46213.000      56.903
  33.5900         46310.000      56.613
  33.6900         46808.000      58.009
  33.7900         46338.000      57.245
  33.8900         46117.000      57.393
  33.9900         46607.000      58.652
  34.0900         46674.000      57.991
  34.1900         46987.000      58.395
  34.2900         46781.000      57.758
  34.3900         47054.000      57.289
  34.4900         46726.000      57.533
  34.5900         46200.000      57.645
  34.6900         46079.000      57.507
  34.7900         46164.000      57.228
  34.8900         45979.000      57.507
  34.9900         45849.000      56.895
  35.0900         46059.000      57.611
  35.1900         45640.000      56.630
  35.2900         45607.000      57.602
  35.3900         46276.000      56.974
  35.4900         46047.000      56.956
  35.5900         46098.000      56.303
  35.6900         46312.000      56.895
  35.7900         46172.000      56.789
  35.8900         45905.000      56.789
  35.9900         46182.000      57.663
  36.0900         47437.000      57.715
  36.1900         49215.000      59.523
  36.2900         52195.000      61.000
  36.3900         52532.000      60.967
  36.4900         50417.000      60.332
  36.5900         48343.000      58.924
  36.6900         46636.000      57.175
  36.7900         46325.000      57.289
  36.8900         45841.000      57.715
  36.9900         45923.000      57.411
  37.0900         46269.000      57.428
  37.1900         45701.000      56.639
  37.2900         45943.000      57.114
  37.3900         46007.000      57.341
  37.4900         45774.000      57.775
  37.5900         45388.000      56.321
  37.6900         45350.000      57.210
  37.7900         45444.000      56.303
  37.8900         45233.000      57.576
  37.9900         45608.000      56.851
  38.0900         45448.000      56.903
  38.1900         45597.000      57.862
  38.2900         45516.000      57.263
  38.3900         45303.000      56.178
  38.4900         45257.000      56.321
  38.5900         45478.000      56.666
  38.6900         45592.000      56.480
  38.7900         45446.000      55.982
  38.8900         44919.000      56.515
  38.9900         45197.000      56.877
  39.0900         45056.000      56.018
  39.1900         45062.000      56.365
  39.2900         45286.000      55.830
  39.3900         45409.000      56.258
  39.4900         45594.000      56.604
  39.5900         45241.000      56.710
  39.6900         45535.000      56.956
  39.7900         45898.000      57.035
  39.8900         45585.000      56.798
  39.9900         45423.000      57.236
  40.0900         45198.000      56.956
  40.1900         45132.000      56.780
  40.2900         45272.000      57.271
  40.3900         45405.000      56.851
  40.4900         45364.000      55.911
  40.5900         45031.000      56.169
  40.6900         44954.000      56.604
  40.7900         45119.000      56.763
  40.8900         44842.000      56.798
  40.9900         45006.000      56.551
  41.0900         44928.000      57.035
  41.1900         45095.000      56.833
  41.2900         45489.000      56.125
  41.3900         45172.000      56.736
  41.4900         45210.000      55.982
  41.5900         44478.000      56.719
  41.6900         45302.000      56.798
  41.7900         45016.000      56.895
  41.8900         44721.000      56.789
  41.9900         44761.000      55.579
  42.0900         44672.000      56.152
  42.1900         44829.000      56.454
  42.2900         44629.000      57.044
  42.3900         44984.000      56.789
  42.4900         44647.000      56.267
  42.5900         44772.000      56.471
  42.6900         44983.000      57.219
  42.7900         44614.000      55.812
  42.8900         44781.000      56.338
  42.9900         44514.000      56.409
  43.0900         44489.000      56.125
  43.1900         44438.000      55.462
  43.2900         44800.000      56.205
  43.3900         45387.000      57.341
  43.4900         44850.000      56.639
  43.5900         44857.000      56.062
  43.6900         44339.000      55.731
  43.7900         44852.000      56.780
  43.8900         45048.000      56.089
  43.9900         44640.000      56.569
  44.0900         44525.000      56.018
  44.1900         44723.000      57.446
  44.2900         44828.000      57.009
  44.3900         44548.000      56.303
  44.4900         44699.000      55.353
  44.5900         44842.000      56.383
  44.6900         44569.000      55.803
  44.7900         45030.000      56.719
  44.8900         45022.000      56.939
  44.9900         44970.000      56.436
  45.0900         44624.000      56.692
  45.1900         44336.000      55.848
  45.2900         44843.000      55.991
  45.3900         44613.000      56.560
  45.4900         44586.000      56.249
  45.5900         44663.000      56.338
  45.6900         44316.000      56.648
  45.7900         44357.000      56.851
  45.8900         44233.000      55.525
  45.9900         44659.000      57.123
  46.0900         44528.000      55.651
  46.1900         44264.000      55.624
  46.2900         44674.000      55.848
  46.3900         44609.000      56.036
  46.4900         44810.000      55.866
  46.5900         44591.000      56.480
  46.6900         44762.000      56.595
  46.7900         44245.000      56.489
  46.8900         44439.000      56.036
  46.9900         44703.000      55.785
  47.0900         44522.000      55.964
  47.1900         44397.000      56.160
  47.2900         44983.000      57.541
  47.3900         44899.000      56.196
  47.4900         45148.000      57.053
  47.5900         45523.000      57.871
  47.6900         46875.000      57.974
  47.7900         47328.000      57.524
  47.8900         47736.000      57.689
  47.9900         46505.000      57.350
  48.0900         45916.000      56.692
  48.1900         45031.000      56.498
  48.2900         44853.000      56.294
  48.3900         44543.000      55.803
  48.4900         44509.000      56.160
  48.5900         44413.000      55.830
