XYDATA SparksLave Co3O4-quenched_600_300K 
INTER        1       1       0     0.100000
TEMP       298.377      300.008      300.000
! d1b Date 14-Nov-11 Time 20:02:39 Run 129985 129974>129985
! d1b Date 14-Nov-11 Time 20:02:39 Run 129985 129974>129985
! Monitor/counts, Counting time/sec:  1.10134e+007 1.10134e+007
   0.7900             4.000       1.000
   0.8900             6.000       1.000
   0.9900          1858.000      12.450
   1.0900          1968.000      13.153
   1.1900          1861.000      12.610
   1.2900          1778.000      11.874
   1.3900          1852.000      11.832
   1.4900          1916.000      12.689
   1.5900          1945.000      12.689
   1.6900          1996.000      13.565
   1.7900          2677.000      15.460
   1.8900          3983.000      18.894
   1.9900          6437.000      23.473
   2.0900          8916.000      27.677
   2.1900         11190.000      31.113
   2.2900         14091.000      34.234
   2.3900         17895.000      39.887
   2.4900         21814.000      43.370
   2.5900         25729.000      46.562
   2.6900         29459.000      49.639
   2.7900         32308.000      52.019
   2.8900         35150.000      53.666
   2.9900         38024.000      55.884
   3.0900         40995.000      58.335
   3.1900         43404.000      60.770
   3.2900         45372.000      61.636
   3.3900         45699.000      62.258
   3.4900         45299.000      61.041
   3.5900         44727.000      61.847
   3.6900         44300.000      61.449
   3.7900         43918.000      61.262
   3.8900         42414.000      59.346
   3.9900         43690.000      60.688
   4.0900         43602.000      60.357
   4.1900         43551.000      60.885
   4.2900         43874.000      59.791
   4.3900         45109.000      61.498
   4.4900         46245.000      61.196
   4.5900         48743.000      63.804
   4.6900         50614.000      64.715
   4.7900         52499.000      66.566
   4.8900         55053.000      67.683
   4.9900         56889.000      68.826
   5.0900         58851.000      69.993
   5.1900         60777.000      72.132
   5.2900         62956.000      72.201
   5.3900         65030.000      72.629
   5.4900         67104.000      74.760
   5.5900         68486.000      75.233
   5.6900         70160.000      76.341
   5.7900         71354.000      76.779
   5.8900         72767.000      77.537
   5.9900         73611.000      79.391
   6.0900         73501.000      77.227
   6.1900         73620.000      77.634
   6.2900         73030.000      77.807
   6.3900         72813.000      77.705
   6.4900         72717.000      77.692
   6.5900         72042.000      77.846
   6.6900         71400.000      77.705
   6.7900         71281.000      76.518
   6.8900         70593.000      76.675
   6.9900         69437.000      75.730
   7.0900         68972.000      76.138
   7.1900         67954.000      75.406
   7.2900         67573.000      74.786
   7.3900         66978.000      75.193
   7.4900         66070.000      74.927
   7.5900         65545.000      73.062
   7.6900         63873.000      72.774
   7.7900         63985.000      72.305
   7.8900         62911.000      72.422
   7.9900         61485.000      71.007
   8.0900         61335.000      70.795
   8.1900         59881.000      69.785
   8.2900         59064.000      69.914
   8.3900         58386.000      68.927
   8.4900         57291.000      68.359
   8.5900         56426.000      68.527
   8.6900         55546.000      68.651
   8.7900         54555.000      67.439
   8.8900         53826.000      67.007
   8.9900         53247.000      67.015
   9.0900         52235.000      65.238
   9.1900         51352.000      65.123
   9.2900         50444.000      64.514
   9.3900         49645.000      64.211
   9.4900         48710.000      63.103
   9.5900         48112.000      63.277
   9.6900         46638.000      61.830
   9.7900         45728.000      61.262
   9.8900         45193.000      61.506
   9.9900         44566.000      61.156
  10.0900         43711.000      59.422
  10.1900         42685.000      59.414
  10.2900         41977.000      59.816
  10.3900         40932.000      58.703
  10.4900         40480.000      58.078
  10.5900         39757.000      57.472
  10.6900         39506.000      57.671
  10.7900         38878.000      56.754
  10.8900         38646.000      56.303
  10.9900         37969.000      56.789
  11.0900         37884.000      56.569
  11.1900         37573.000      56.374
  11.2900         37777.000      57.280
  11.3900         37352.000      55.588
  11.4900         37504.000      56.595
  11.5900         37836.000      55.893
  11.6900         37647.000      55.714
  11.7900         37175.000      55.064
  11.8900         37152.000      56.613
  11.9900         37654.000      56.116
  12.0900         37255.000      56.223
  12.1900         37005.000      55.991
  12.2900         37128.000      56.152
  12.3900         37416.000      56.089
  12.4900         37497.000      55.812
  12.5900         37440.000      55.964
  12.6900         37118.000      54.854
  12.7900         37212.000      55.227
  12.8900         37050.000      55.911
  12.9900         37080.000      56.391
  13.0900         37285.000      55.218
  13.1900         37176.000      56.062
  13.2900         36859.000      55.245
  13.3900         36477.000      55.045
  13.4900         36826.000      55.027
  13.5900         36937.000      55.209
  13.6900         36727.000      55.534
  13.7900         36790.000      55.776
  13.8900         36760.000      54.754
  13.9900         37174.000      55.687
  14.0900         37012.000      56.018
  14.1900         36757.000      55.100
  14.2900         36678.000      55.696
  14.3900         37239.000      55.830
  14.4900         36654.000      55.615
  14.5900         36775.000      55.884
  14.6900         36540.000      56.418
  14.7900         36676.000      55.776
  14.8900         36297.000      55.353
  14.9900         36731.000      54.863
  15.0900         36555.000      55.740
  15.1900         36799.000      56.045
  15.2900         37421.000      56.533
  15.3900         37304.000      55.964
  15.4900         37530.000      55.973
  15.5900         37439.000      55.714
  15.6900         37266.000      55.552
  15.7900         36697.000      55.218
  15.8900         36664.000      55.588
  15.9900         36755.000      54.498
  16.0900         36894.000      56.098
  16.1900         36430.000      55.200
  16.2900         36590.000      55.381
  16.3900         36463.000      55.200
  16.4900         36608.000      55.453
  16.5900         36571.000      55.245
  16.6900         36753.000      54.845
  16.7900         36698.000      56.116
  16.8900         36594.000      54.891
  16.9900         36773.000      55.534
  17.0900         36499.000      55.381
  17.1900         36825.000      54.745
  17.2900         36376.000      55.417
  17.3900         36486.000      55.812
  17.4900         36381.000      54.589
  17.5900         36977.000      54.351
  17.6900         36624.000      55.245
  17.7900         36877.000      56.267
  17.8900         37107.000      55.955
  17.9900         36836.000      55.236
  18.0900         36709.000      56.232
  18.1900         36480.000      56.054
  18.2900         36629.000      55.489
  18.3900         36587.000      55.543
  18.4900         36945.000      56.498
  18.5900         36893.000      56.205
  18.6900         37085.000      55.154
  18.7900         36782.000      55.498
  18.8900         36814.000      55.018
  18.9900         36764.000      56.143
  19.0900         36694.000      54.809
  19.1900         36654.000      54.111
  19.2900         36727.000      56.338
  19.3900         36287.000      55.435
  19.4900         36321.000      55.417
  19.5900         36909.000      56.062
  19.6900         36408.000      55.200
  19.7900         37021.000      56.347
  19.8900         36091.000      54.891
  19.9900         36803.000      56.454
  20.0900         36649.000      55.172
  20.1900         36368.000      55.299
  20.2900         36576.000      55.785
  20.3900         36697.000      55.362
  20.4900         36484.000      55.929
  20.5900         36785.000      55.353
  20.6900         36884.000      55.579
  20.7900         36961.000      56.080
  20.8900         36903.000      55.471
  20.9900         36968.000      55.200
  21.0900         36417.000      55.597
  21.1900         36662.000      55.534
  21.2900         36732.000      55.480
  21.3900         36640.000      55.344
  21.4900         36696.000      55.884
  21.5900         36397.000      55.218
  21.6900         36390.000      55.254
  21.7900         36828.000      55.857
  21.8900         37022.000      55.561
  21.9900         36808.000      55.091
  22.0900         36616.000      55.525
  22.1900         36711.000      55.127
  22.2900         36525.000      54.727
  22.3900         36380.000      55.281
  22.4900         36753.000      55.344
  22.5900         36615.000      55.794
  22.6900         36824.000      55.118
  22.7900         36606.000      55.027
  22.8900         36505.000      55.344
  22.9900         36930.000      54.982
  23.0900         36497.000      56.080
  23.1900         36558.000      55.579
  23.2900         36430.000      54.982
  23.3900         36956.000      56.062
  23.4900         36786.000      55.543
  23.5900         36617.000      54.717
  23.6900         36698.000      54.973
  23.7900         36916.000      55.100
  23.8900         36845.000      56.000
  23.9900         37269.000      56.143
  24.0900         37155.000      54.918
  24.1900         37038.000      55.615
  24.2900         36418.000      54.964
  24.3900         36549.000      55.408
  24.4900         36448.000      55.209
  24.5900         36833.000      56.214
  24.6900         36798.000      55.534
  24.7900         36750.000      55.830
  24.8900         36763.000      55.660
  24.9900         36776.000      55.830
  25.0900         36541.000      55.552
  25.1900         36624.000      55.091
  25.2900         37011.000      56.329
  25.3900         36997.000      54.955
  25.4900         37132.000      55.498
  25.5900         37410.000      55.758
  25.6900         37143.000      56.267
  25.7900         36961.000      55.371
  25.8900         36896.000      56.683
  25.9900         37009.000      55.705
  26.0900         37134.000      55.453
  26.1900         36801.000      55.335
  26.2900         36797.000      55.009
  26.3900         36853.000      55.498
  26.4900         36877.000      55.642
  26.5900         37063.000      54.553
  26.6900         36637.000      55.678
  26.7900         36773.000      55.109
  26.8900         36742.000      55.009
  26.9900         36830.000      56.080
  27.0900         36707.000      55.570
  27.1900         36842.000      55.570
  27.2900         36929.000      55.525
  27.3900         37088.000      55.749
  27.4900         37177.000      56.258
  27.5900         36886.000      55.642
  27.6900         36824.000      54.936
  27.7900         36793.000      54.873
  27.8900         36868.000      56.045
  27.9900         36968.000      55.893
  28.0900         37138.000      56.480
  28.1900         37383.000      55.678
  28.2900         36983.000      56.098
  28.3900         37204.000      55.308
  28.4900         37069.000      56.365
  28.5900         36853.000      56.391
  28.6900         36645.000      55.516
  28.7900         37021.000      56.071
  28.8900         36980.000      56.507
  28.9900         36691.000      54.681
  29.0900         37113.000      55.758
  29.1900         36982.000      54.452
  29.2900         36921.000      55.290
  29.3900         36828.000      54.927
  29.4900         36966.000      55.064
  29.5900         36968.000      55.624
  29.6900         37030.000      55.281
  29.7900         37078.000      56.223
  29.8900         37752.000      56.045
  29.9900         38216.000      56.196
  30.0900         37732.000      56.009
  30.1900         37784.000      55.723
  30.2900         37437.000      55.884
  30.3900         37237.000      55.929
  30.4900         37742.000      57.289
  30.5900         38237.000      56.045
  30.6900         38712.000      56.391
  30.7900         39185.000      56.745
  30.8900         40850.000      59.271
  30.9900         44487.000      60.918
  31.0900         51378.000      65.192
  31.1900         61437.000      71.070
  31.2900         70626.000      77.343
  31.3900         72291.000      77.382
  31.4900         64876.000      73.308
  31.5900         53727.000      67.342
  31.6900         45527.000      60.885
  31.7900         41106.000      59.135
  31.8900         39423.000      58.292
  31.9900         38128.000      56.507
  32.0900         38269.000      56.312
  32.1900         37398.000      55.964
  32.2900         37518.000      56.294
  32.3900         37189.000      55.073
  32.4900         37482.000      55.964
  32.5900         37352.000      54.323
  32.6900         37348.000      55.435
  32.7900         37068.000      54.945
  32.8900         37063.000      55.561
  32.9900         37318.000      55.642
  33.0900         37254.000      55.254
  33.1900         37074.000      56.595
  33.2900         37029.000      55.417
  33.3900         37244.000      55.731
  33.4900         36902.000      55.651
  33.5900         37161.000      55.740
  33.6900         36930.000      55.082
  33.7900         36914.000      54.854
  33.8900         36932.000      55.127
  33.9900         36776.000      55.381
  34.0900         37149.000      55.543
  34.1900         37463.000      55.937
  34.2900         37469.000      55.857
  34.3900         37105.000      55.920
  34.4900         37142.000      55.227
  34.5900         36729.000      55.000
  34.6900         37038.000      55.624
  34.7900         36918.000      55.254
  34.8900         36914.000      56.409
  34.9900         36595.000      55.507
  35.0900         36435.000      54.727
  35.1900         36550.000      55.209
  35.2900         36800.000      55.803
  35.3900         36980.000      54.945
  35.4900         37094.000      55.552
  35.5900         36911.000      55.498
  35.6900         37137.000      56.329
  35.7900         36734.000      55.055
  35.8900         36816.000      55.857
  35.9900         36953.000      54.873
  36.0900         37555.000      54.982
  36.1900         39227.000      56.868
  36.2900         41292.000      58.634
  36.3900         42476.000      58.966
  36.4900         41143.000      58.395
  36.5900         38787.000      57.228
  36.6900         37425.000      56.285
  36.7900         36952.000      56.054
  36.8900         36673.000      55.272
  36.9900         36556.000      55.200
  37.0900         36970.000      55.812
  37.1900         36609.000      55.714
  37.2900         36155.000      54.046
  37.3900         36712.000      55.182
  37.4900         36728.000      54.955
  37.5900         36494.000      55.624
  37.6900         36131.000      54.955
  37.7900         36595.000      54.626
  37.8900         36243.000      55.570
  37.9900         36800.000      55.018
  38.0900         36808.000      54.918
  38.1900         36527.000      55.236
  38.2900         36757.000      55.444
  38.3900         36212.000      55.100
  38.4900         36326.000      55.417
  38.5900         36565.000      55.471
  38.6900         36641.000      55.705
  38.7900         36127.000      55.624
  38.8900         36627.000      55.633
  38.9900         36453.000      55.064
  39.0900         36547.000      54.699
  39.1900         36134.000      54.955
  39.2900         36513.000      56.436
  39.3900         36498.000      54.599
  39.4900         36505.000      55.543
  39.5900         36515.000      55.118
  39.6900         36932.000      54.663
  39.7900         36540.000      55.642
  39.8900         36941.000      55.082
  39.9900         36489.000      54.387
  40.0900         36307.000      55.588
  40.1900         36545.000      55.633
  40.2900         36383.000      54.873
  40.3900         36301.000      55.127
  40.4900         36262.000      54.927
  40.5900         36383.000      54.589
  40.6900         36299.000      54.231
  40.7900         35895.000      55.227
  40.8900         36173.000      54.148
  40.9900         35935.000      55.209
  41.0900         36469.000      54.936
  41.1900         35896.000      54.772
  41.2900         36374.000      54.717
  41.3900         36120.000      54.443
  41.4900         36436.000      55.027
  41.5900         36144.000      55.263
  41.6900         36329.000      54.653
  41.7900         36265.000      54.900
  41.8900         36124.000      54.222
  41.9900         36372.000      54.323
  42.0900         36104.000      55.154
  42.1900         36317.000      54.873
  42.2900         36042.000      55.381
  42.3900         35753.000      54.222
  42.4900         36319.000      55.317
  42.5900         36250.000      56.000
  42.6900         36078.000      55.344
  42.7900         36197.000      55.839
  42.8900         36280.000      55.100
  42.9900         35836.000      54.534
  43.0900         35985.000      54.854
  43.1900         35910.000      55.200
  43.2900         36097.000      54.056
  43.3900         36266.000      55.453
  43.4900         35953.000      55.552
  43.5900         36100.000      54.918
  43.6900         36501.000      55.263
  43.7900         36093.000      54.891
  43.8900         36251.000      55.381
  43.9900         35995.000      54.626
  44.0900         35829.000      54.544
  44.1900         35890.000      54.717
  44.2900         35988.000      55.299
  44.3900         36194.000      55.705
  44.4900         35900.000      54.378
  44.5900         36432.000      55.498
  44.6900         36187.000      55.335
  44.7900         36188.000      55.489
  44.8900         36159.000      55.018
  44.9900         36336.000      54.617
  45.0900         36463.000      55.534
  45.1900         36042.000      54.489
  45.2900         35993.000      54.534
  45.3900         36109.000      54.323
  45.4900         36207.000      55.381
  45.5900         36525.000      55.290
  45.6900         35937.000      54.479
  45.7900         36358.000      54.791
  45.8900         36209.000      55.723
  45.9900         36413.000      55.911
  46.0900         36198.000      54.927
  46.1900         36275.000      54.534
  46.2900         36009.000      54.378
  46.3900         36127.000      55.064
  46.4900         36402.000      54.562
  46.5900         36250.000      54.891
  46.6900         36131.000      55.172
  46.7900         36143.000      53.926
  46.8900         36140.000      54.323
  46.9900         36309.000      55.290
  47.0900         35916.000      54.791
  47.1900         36274.000      55.073
  47.2900         36114.000      55.191
  47.3900         36182.000      54.635
  47.4900         36360.000      54.194
  47.5900         36893.000      54.955
  47.6900         38096.000      56.303
  47.7900         38815.000      55.588
  47.8900         38520.000      56.178
  47.9900         38284.000      56.089
  48.0900         37381.000      55.444
  48.1900         36556.000      55.633
  48.2900         36454.000      55.489
  48.3900         36317.000      54.854
  48.4900         36222.000      54.443
  48.5900         36457.000      54.964
