XYDATA SparksLave Co3O4-quenched_600_1.5K 
INTER        1       1       0     0.100000
TEMP       1.44650      1.67340      1.50000
! d1b Date 14-Nov-11 Time 23:14:20 Run 129997 129986>129997
! d1b Date 14-Nov-11 Time 23:14:20 Run 129997 129986>129997
! Monitor/counts, Counting time/sec:  1.09683e+007 1.09683e+007
   0.7900             4.000       1.000
   0.8900             4.000       1.000
   0.9900          1883.000      12.806
   1.0900          1899.000      12.530
   1.1900          1832.000      12.166
   1.2900          1774.000      11.576
   1.3900          1844.000      12.530
   1.4900          1862.000      12.083
   1.5900          1903.000      13.153
   1.6900          1931.000      12.689
   1.7900          2516.000      15.362
   1.8900          4011.000      18.330
   1.9900          6550.000      24.228
   2.0900          8897.000      28.160
   2.1900         11182.000      30.854
   2.2900         14370.000      35.355
   2.3900         18140.000      37.881
   2.4900         21973.000      43.035
   2.5900         25598.000      45.957
   2.6900         29775.000      49.092
   2.7900         32685.000      52.230
   2.8900         35164.000      53.889
   2.9900         37803.000      55.848
   3.0900         40970.000      58.523
   3.1900         43472.000      60.548
   3.2900         45266.000      61.887
   3.3900         45741.000      61.563
   3.4900         45335.000      61.172
   3.5900         44603.000      61.172
   3.6900         43683.000      60.564
   3.7900         43303.000      59.758
   3.8900         42213.000      59.557
   3.9900         43842.000      60.200
   4.0900         43230.000      60.166
   4.1900         42989.000      59.816
   4.2900         43526.000      59.363
   4.3900         44501.000      60.208
   4.4900         45969.000      61.579
   4.5900         47852.000      62.658
   4.6900         49357.000      64.397
   4.7900         51092.000      64.777
   4.8900         52833.000      67.112
   4.9900         54412.000      67.298
   5.0900         56190.000      68.140
   5.1900         58566.000      70.157
   5.2900         59476.000      70.214
   5.3900         61166.000      71.288
   5.4900         62487.000      72.422
   5.5900         64071.000      73.783
   5.6900         65503.000      74.940
   5.7900         66651.000      74.014
   5.8900         67427.000      75.498
   5.9900         68652.000      75.835
   6.0900         68593.000      76.177
   6.1900         68568.000      76.066
   6.2900         68421.000      75.233
   6.3900         68261.000      74.559
   6.4900         68205.000      75.584
   6.5900         67156.000      75.895
   6.6900         66598.000      74.780
   6.7900         66769.000      74.793
   6.8900         65789.000      74.095
   6.9900         65527.000      73.980
   7.0900         65039.000      73.966
   7.1900         63843.000      72.719
   7.2900         63430.000      72.760
   7.3900         62441.000      72.319
   7.4900         61426.000      71.295
   7.5900         60600.000      71.155
   7.6900         59724.000      69.354
   7.7900         59528.000      70.029
   7.8900         58720.000      69.412
   7.9900         57532.000      69.549
   8.0900         57042.000      69.051
   8.1900         56213.000      68.044
   8.2900         55145.000      67.476
   8.3900         54576.000      66.400
   8.4900         53748.000      67.231
   8.5900         51982.000      65.559
   8.6900         51740.000      65.383
   8.7900         51302.000      65.681
   8.8900         49930.000      64.140
   8.9900         49646.000      64.101
   9.0900         48557.000      64.055
   9.1900         47611.000      63.514
   9.2900         46762.000      62.290
   9.3900         46161.000      61.944
   9.4900         44626.000      60.448
   9.5900         44491.000      60.926
   9.6900         43743.000      61.033
   9.7900         42365.000      58.873
   9.8900         41507.000      58.847
   9.9900         41043.000      58.788
  10.0900         40357.000      57.550
  10.1900         39330.000      56.824
  10.2900         38396.000      57.079
  10.3900         37634.000      55.884
  10.4900         37062.000      55.570
  10.5900         36353.000      54.580
  10.6900         35776.000      54.314
  10.7900         35422.000      54.580
  10.8900         35620.000      54.854
  10.9900         34753.000      53.367
  11.0900         34326.000      53.507
  11.1900         34816.000      54.378
  11.2900         34555.000      53.329
  11.3900         34090.000      53.777
  11.4900         34452.000      52.839
  11.5900         34508.000      53.535
  11.6900         34358.000      53.066
  11.7900         34054.000      53.544
  11.8900         34214.000      53.123
  11.9900         33829.000      53.722
  12.0900         34296.000      53.516
  12.1900         34297.000      52.345
  12.2900         34204.000      54.028
  12.3900         33890.000      53.028
  12.4900         33961.000      53.329
  12.5900         33886.000      52.849
  12.6900         33989.000      52.479
  12.7900         34089.000      52.783
  12.8900         34267.000      53.796
  12.9900         33844.000      53.385
  13.0900         33779.000      53.647
  13.1900         33917.000      53.245
  13.2900         34027.000      52.802
  13.3900         33715.000      52.716
  13.4900         33980.000      52.412
  13.5900         33959.000      53.141
  13.6900         33935.000      53.554
  13.7900         33623.000      54.019
  13.8900         34101.000      53.656
  13.9900         33765.000      52.726
  14.0900         34124.000      53.009
  14.1900         34152.000      52.981
  14.2900         33823.000      53.057
  14.3900         33815.000      53.113
  14.4900         33987.000      52.574
  14.5900         33907.000      52.754
  14.6900         33926.000      53.796
  14.7900         33891.000      52.972
  14.8900         33824.000      53.684
  14.9900         33731.000      52.536
  15.0900         34286.000      53.759
  15.1900         33878.000      53.582
  15.2900         34682.000      54.745
  15.3900         35734.000      54.406
  15.4900         35744.000      55.579
  15.5900         35327.000      53.991
  15.6900         34356.000      53.805
  15.7900         34022.000      53.301
  15.8900         33976.000      53.066
  15.9900         33772.000      52.830
  16.0900         34018.000      54.111
  16.1900         33434.000      52.134
  16.2900         33830.000      53.376
  16.3900         33564.000      52.849
  16.4900         34055.000      53.898
  16.5900         33626.000      53.085
  16.6900         33876.000      52.877
  16.7900         33888.000      53.329
  16.8900         33759.000      52.498
  16.9900         34117.000      52.278
  17.0900         33793.000      52.839
  17.1900         33562.000      53.254
  17.2900         33876.000      52.924
  17.3900         34155.000      52.631
  17.4900         34016.000      53.516
  17.5900         34008.000      53.470
  17.6900         34223.000      53.470
  17.7900         34325.000      52.536
  17.8900         34712.000      53.694
  17.9900         34771.000      53.768
  18.0900         34545.000      53.972
  18.1900         34634.000      53.954
  18.2900         34145.000      53.582
  18.3900         34028.000      53.712
  18.4900         33848.000      53.038
  18.5900         34012.000      53.151
  18.6900         33857.000      52.991
  18.7900         33895.000      53.423
  18.8900         33678.000      52.374
  18.9900         34490.000      53.777
  19.0900         34175.000      52.526
  19.1900         33916.000      52.802
  19.2900         33799.000      52.659
  19.3900         34259.000      53.777
  19.4900         34415.000      52.792
  19.5900         33980.000      52.412
  19.6900         33860.000      52.849
  19.7900         33966.000      52.830
  19.8900         34136.000      54.093
  19.9900         34259.000      53.563
  20.0900         34330.000      53.740
  20.1900         34470.000      54.213
  20.2900         34476.000      53.675
  20.3900         33984.000      53.235
  20.4900         34227.000      53.703
  20.5900         34468.000      53.479
  20.6900         34838.000      53.796
  20.7900         34064.000      52.764
  20.8900         34150.000      53.235
  20.9900         34347.000      53.638
  21.0900         34308.000      53.926
  21.1900         33882.000      53.619
  21.2900         34003.000      54.268
  21.3900         34318.000      54.148
  21.4900         34159.000      53.245
  21.5900         34333.000      53.075
  21.6900         34051.000      53.207
  21.7900         34244.000      53.404
  21.8900         34328.000      53.310
  21.9900         33948.000      52.943
  22.0900         33827.000      52.402
  22.1900         34177.000      53.516
  22.2900         34295.000      52.924
  22.3900         34232.000      52.754
  22.4900         34197.000      53.413
  22.5900         34266.000      53.694
  22.6900         33954.000      53.442
  22.7900         34150.000      53.526
  22.8900         34235.000      54.863
  22.9900         34378.000      54.589
  23.0900         34331.000      54.397
  23.1900         34671.000      53.432
  23.2900         34146.000      52.498
  23.3900         34010.000      53.498
  23.4900         34457.000      52.811
  23.5900         34503.000      53.638
  23.6900         34307.000      53.348
  23.7900         34581.000      53.113
  23.8900         34888.000      54.360
  23.9900         34669.000      53.972
  24.0900         34466.000      54.111
  24.1900         34802.000      53.889
  24.2900         34653.000      53.787
  24.3900         34063.000      53.460
  24.4900         34549.000      52.773
  24.5900         34651.000      54.065
  24.6900         34293.000      52.783
  24.7900         34692.000      53.731
  24.8900         34571.000      53.320
  24.9900         34359.000      53.057
  25.0900         34298.000      53.000
  25.1900         34419.000      54.203
  25.2900         34708.000      53.582
  25.3900         35019.000      54.369
  25.4900         35045.000      53.544
  25.5900         35338.000      53.273
  25.6900         34753.000      53.367
  25.7900         34824.000      53.610
  25.8900         34933.000      53.507
  25.9900         34556.000      53.263
  26.0900         35114.000      53.423
  26.1900         35241.000      54.553
  26.2900         34626.000      53.198
  26.3900         34754.000      54.342
  26.4900         34804.000      53.824
  26.5900         34826.000      53.404
  26.6900         34804.000      53.722
  26.7900         35130.000      53.675
  26.8900         34930.000      54.065
  26.9900         35021.000      53.395
  27.0900         34711.000      54.093
  27.1900         35084.000      54.009
  27.2900         34981.000      53.442
  27.3900         34968.000      53.207
  27.4900         35355.000      53.954
  27.5900         34429.000      53.329
  27.6900         34889.000      53.852
  27.7900         34915.000      54.498
  27.8900         35272.000      53.917
  27.9900         35060.000      54.093
  28.0900         34907.000      53.656
  28.1900         35344.000      53.703
  28.2900         35045.000      53.544
  28.3900         35156.000      53.385
  28.4900         35289.000      54.498
  28.5900         35285.000      54.148
  28.6900         35648.000      54.562
  28.7900         35117.000      54.305
  28.8900         35050.000      54.203
  28.9900         35490.000      55.073
  29.0900         35384.000      54.222
  29.1900         35505.000      54.754
  29.2900         35334.000      54.185
  29.3900         36130.000      55.552
  29.4900         35486.000      54.571
  29.5900         35700.000      54.378
  29.6900         36366.000      55.335
  29.7900         36228.000      54.470
  29.8900         36946.000      55.064
  29.9900         37052.000      55.299
  30.0900         37115.000      55.290
  30.1900         37378.000      54.955
  30.2900         37127.000      55.390
  30.3900         37064.000      55.740
  30.4900         37391.000      55.579
  30.5900         38158.000      56.285
  30.6900         39229.000      56.771
  30.7900         40714.000      57.533
  30.8900         43728.000      60.457
  30.9900         49957.000      64.521
  31.0900         61220.000      71.456
  31.1900         78190.000      80.672
  31.2900         94152.000      88.221
  31.3900         98963.000      90.758
  31.4900         90511.000      87.275
  31.5900         72768.000      77.123
  31.6900         57292.000      69.051
  31.7900         47673.000      63.277
  31.8900         42504.000      58.164
  31.9900         40255.000      58.352
  32.0900         38467.000      56.436
  32.1900         37509.000      55.109
  32.2900         37513.000      55.848
  32.3900         36985.000      55.615
  32.4900         36951.000      55.534
  32.5900         36060.000      54.406
  32.6900         36014.000      54.342
  32.7900         36041.000      54.772
  32.8900         36046.000      54.854
  32.9900         36152.000      54.772
  33.0900         35714.000      55.696
  33.1900         35913.000      54.945
  33.2900         35529.000      54.553
  33.3900         36093.000      54.690
  33.4900         35618.000      54.489
  33.5900         35829.000      55.091
  33.6900         35764.000      53.749
  33.7900         36051.000      54.772
  33.8900         35544.000      53.656
  33.9900         35732.000      54.626
  34.0900         36057.000      54.046
  34.1900         36215.000      55.200
  34.2900         36164.000      54.891
  34.3900         36293.000      54.562
  34.4900         36079.000      54.909
  34.5900         35963.000      54.791
  34.6900         35670.000      55.154
  34.7900         35803.000      55.308
  34.8900         35990.000      54.690
  34.9900         35719.000      54.534
  35.0900         35732.000      53.740
  35.1900         36142.000      54.836
  35.2900         36259.000      55.009
  35.3900         36050.000      54.663
  35.4900         36870.000      55.163
  35.5900         36415.000      55.651
  35.6900         37521.000      55.570
  35.7900         38602.000      58.138
  35.8900         39799.000      57.974
  35.9900         42925.000      59.641
  36.0900         47993.000      63.679
  36.1900         55154.000      67.882
  36.2900         63007.000      72.533
  36.3900         67153.000      74.081
  36.4900         65009.000      73.198
  36.5900         58065.000      69.253
  36.6900         50075.000      64.614
  36.7900         44851.000      62.282
  36.8900         40389.000      58.198
  36.9900         39356.000      57.454
  37.0900         37548.000      55.633
  37.1900         36928.000      54.891
  37.2900         36222.000      53.805
  37.3900         36369.000      55.254
  37.4900         35858.000      55.308
  37.5900         35673.000      54.148
  37.6900         35880.000      54.763
  37.7900         35327.000      53.498
  37.8900         35440.000      54.845
  37.9900         35552.000      54.185
  38.0900         35681.000      54.681
  38.1900         35252.000      54.516
  38.2900         35495.000      53.879
  38.3900         34822.000      53.141
  38.4900         35211.000      53.591
  38.5900         35406.000      54.129
  38.6900         34931.000      54.378
  38.7900         35389.000      53.935
  38.8900         34966.000      53.833
  38.9900         34933.000      54.009
  39.0900         35249.000      54.443
  39.1900         35175.000      54.323
  39.2900         35012.000      53.245
  39.3900         35034.000      53.038
  39.4900         34789.000      54.083
  39.5900         35147.000      53.282
  39.6900         35597.000      54.690
  39.7900         35437.000      54.166
  39.8900         35330.000      54.635
  39.9900         35290.000      53.675
  40.0900         35452.000      53.235
  40.1900         34810.000      54.028
  40.2900         35050.000      54.231
  40.3900         34641.000      53.217
  40.4900         35077.000      53.460
  40.5900         35104.000      54.369
  40.6900         35054.000      53.535
  40.7900         35181.000      54.102
  40.8900         35100.000      54.461
  40.9900         35270.000      54.580
  41.0900         35080.000      55.064
  41.1900         34745.000      53.675
  41.2900         35402.000      54.516
  41.3900         35033.000      53.226
  41.4900         34911.000      53.805
  41.5900         34770.000      54.019
  41.6900         34989.000      54.194
  41.7900         34985.000      53.666
  41.8900         34951.000      52.716
  41.9900         34755.000      53.694
  42.0900         34555.000      53.028
  42.1900         34868.000      54.534
  42.2900         34905.000      53.619
  42.3900         34888.000      54.259
  42.4900         34662.000      53.544
  42.5900         34786.000      53.981
  42.6900         34767.000      53.954
  42.7900         34429.000      53.889
  42.8900         34723.000      53.507
  42.9900         34676.000      54.157
  43.0900         34882.000      53.712
  43.1900         34487.000      53.009
  43.2900         34458.000      53.712
  43.3900         34906.000      53.207
  43.4900         34921.000      54.129
  43.5900         34930.000      52.849
  43.6900         34811.000      53.516
  43.7900         34510.000      53.488
  43.8900         34576.000      53.554
  43.9900         34367.000      53.591
  44.0900         34659.000      52.574
  44.1900         34503.000      53.824
  44.2900         34697.000      53.451
  44.3900         34835.000      54.111
  44.4900         35196.000      53.460
  44.5900         34715.000      54.222
  44.6900         34564.000      53.777
  44.7900         34702.000      52.773
  44.8900         34945.000      54.305
  44.9900         34717.000      53.488
  45.0900         34453.000      54.129
  45.1900         34729.000      53.507
  45.2900         34450.000      53.160
  45.3900         34172.000      53.179
  45.4900         34779.000      53.703
  45.5900         34338.000      53.123
  45.6900         34532.000      53.470
  45.7900         34891.000      52.621
  45.8900         34785.000      54.672
  45.9900         35055.000      53.619
  46.0900         34858.000      52.697
  46.1900         34826.000      53.619
  46.2900         34791.000      52.249
  46.3900         34798.000      53.731
  46.4900         34900.000      52.288
  46.5900         34603.000      53.066
  46.6900         34724.000      53.535
  46.7900         34891.000      54.699
  46.8900         34496.000      53.367
  46.9900         34361.000      53.442
  47.0900         34762.000      53.057
  47.1900         34778.000      52.669
  47.2900         35030.000      53.075
  47.3900         35050.000      53.301
  47.4900         35174.000      53.600
  47.5900         35029.000      53.357
  47.6900         36254.000      55.543
  47.7900         37029.000      55.408
  47.8900         36913.000      55.417
  47.9900         36770.000      54.955
  48.0900         36131.000      54.809
  48.1900         34962.000      54.037
  48.2900         35059.000      53.235
  48.3900         34815.000      53.254
  48.4900         35056.000      54.305
  48.5900         34960.000      53.460
