XYDATA SparksLave Co3O4-quenched_700_1.5K 
INTER        1       1       0     0.100000
TEMP       1.41490      1.64330      1.50000
! d1b Date 15-Nov-11 Time 05:38:40 Run 130021 130010>130021
! d1b Date 15-Nov-11 Time 05:38:40 Run 130021 130010>130021
! Monitor/counts, Counting time/sec:  1.08804e+007 1.08804e+007
   0.7900             4.000       1.000
   0.8900             7.000       1.000
   0.9900          1859.000      12.329
   1.0900          1889.000      12.450
   1.1900          1892.000      13.191
   1.2900          1763.000      12.124
   1.3900          1859.000      13.038
   1.4900          1836.000      11.874
   1.5900          1968.000      13.266
   1.6900          1973.000      13.638
   1.7900          2595.000      14.491
   1.8900          4072.000      18.248
   1.9900          6615.000      24.310
   2.0900          9016.000      27.911
   2.1900         11275.000      30.757
   2.2900         14288.000      34.496
   2.3900         18229.000      38.432
   2.4900         21985.000      42.332
   2.5900         25985.000      46.947
   2.6900         29827.000      50.010
   2.7900         32466.000      51.643
   2.8900         35400.000      54.286
   2.9900         38094.000      55.866
   3.0900         41131.000      58.677
   3.1900         43927.000      60.778
   3.2900         45695.000      62.225
   3.3900         45971.000      61.514
   3.4900         45342.000      61.555
   3.5900         44862.000      61.392
   3.6900         44111.000      60.712
   3.7900         43570.000      59.397
   3.8900         43099.000      59.220
   3.9900         43874.000      60.075
   4.0900         43359.000      60.266
   4.1900         43343.000      59.858
   4.2900         43370.000      59.858
   4.3900         43776.000      60.424
   4.4900         44381.000      61.425
   4.5900         45641.000      60.992
   4.6900         47009.000      63.348
   4.7900         48620.000      63.285
   4.8900         49861.000      65.406
   4.9900         51620.000      65.077
   5.0900         53082.000      66.656
   5.1900         54530.000      66.776
   5.2900         56496.000      69.354
   5.3900         57644.000      70.036
   5.4900         59220.000      70.420
   5.5900         60578.000      70.810
   5.6900         61113.000      70.972
   5.7900         62799.000      72.222
   5.8900         63907.000      72.925
   5.9900         65629.000      74.277
   6.0900         67037.000      73.770
   6.1900         67144.000      74.020
   6.2900         66754.000      74.169
   6.3900         67209.000      75.914
   6.4900         66676.000      74.539
   6.5900         65755.000      73.750
   6.6900         65961.000      74.719
   6.7900         64860.000      74.169
   6.8900         64755.000      73.205
   6.9900         64522.000      73.593
   7.0900         63821.000      73.226
   7.1900         62789.000      73.062
   7.2900         62206.000      71.896
   7.3900         61843.000      71.063
   7.4900         60910.000      71.498
   7.5900         60501.000      70.711
   7.6900         58813.000      69.556
   7.7900         58773.000      69.599
   7.8900         58109.000      70.000
   7.9900         56956.000      69.311
   8.0900         56356.000      68.462
   8.1900         55505.000      68.527
   8.2900         55129.000      67.838
   8.3900         53880.000      67.357
   8.4900         53462.000      67.104
   8.5900         52252.000      65.506
   8.6900         51562.000      65.841
   8.7900         50891.000      65.184
   8.8900         49791.000      64.281
   8.9900         48848.000      63.898
   9.0900         48142.000      63.048
   9.1900         47197.000      62.929
   9.2900         46649.000      62.722
   9.3900         45881.000      61.335
   9.4900         45271.000      61.579
   9.5900         44223.000      61.392
   9.6900         43435.000      58.830
   9.7900         42469.000      59.025
   9.8900         41346.000      58.455
   9.9900         40521.000      57.706
  10.0900         39869.000      57.324
  10.1900         39329.000      57.715
  10.2900         38476.000      56.622
  10.3900         38075.000      57.245
  10.4900         37465.000      56.604
  10.5900         36300.000      54.663
  10.6900         36031.000      55.082
  10.7900         35540.000      54.717
  10.8900         34802.000      53.591
  10.9900         34523.000      53.160
  11.0900         34484.000      53.423
  11.1900         34638.000      53.954
  11.2900         34234.000      53.684
  11.3900         33900.000      54.093
  11.4900         34443.000      54.231
  11.5900         33999.000      54.157
  11.6900         34313.000      54.203
  11.7900         34367.000      53.619
  11.8900         34177.000      52.735
  11.9900         34275.000      53.451
  12.0900         34419.000      52.924
  12.1900         33996.000      52.640
  12.2900         33796.000      53.132
  12.3900         33992.000      52.707
  12.4900         34026.000      54.369
  12.5900         34213.000      53.759
  12.6900         33622.000      52.230
  12.7900         34060.000      52.934
  12.8900         33978.000      52.678
  12.9900         34111.000      54.083
  13.0900         34232.000      52.962
  13.1900         33593.000      52.726
  13.2900         34056.000      52.707
  13.3900         33890.000      53.038
  13.4900         33875.000      53.628
  13.5900         34066.000      52.754
  13.6900         34161.000      53.442
  13.7900         33758.000      51.942
  13.8900         34162.000      53.292
  13.9900         33672.000      52.981
  14.0900         33898.000      53.395
  14.1900         33820.000      53.516
  14.2900         34006.000      52.469
  14.3900         33630.000      53.348
  14.4900         33915.000      53.254
  14.5900         33638.000      52.221
  14.6900         33985.000      53.357
  14.7900         34139.000      52.981
  14.8900         33955.000      52.602
  14.9900         33985.000      53.824
  15.0900         34003.000      53.535
  15.1900         34597.000      53.712
  15.2900         35656.000      55.036
  15.3900         36506.000      54.525
  15.4900         36472.000      55.182
  15.5900         35257.000      53.814
  15.6900         34606.000      53.057
  15.7900         34251.000      54.083
  15.8900         33868.000      52.460
  15.9900         34081.000      53.019
  16.0900         34375.000      53.731
  16.1900         33633.000      53.075
  16.2900         33796.000      52.943
  16.3900         33589.000      53.009
  16.4900         33749.000      53.526
  16.5900         34094.000      53.160
  16.6900         33893.000      52.811
  16.7900         33735.000      53.170
  16.8900         34058.000      53.703
  16.9900         33699.000      53.787
  17.0900         34030.000      53.423
  17.1900         33690.000      52.631
  17.2900         34243.000      53.535
  17.3900         33997.000      53.000
  17.4900         33893.000      52.943
  17.5900         34300.000      53.198
  17.6900         34833.000      53.451
  17.7900         35102.000      54.203
  17.8900         35449.000      54.129
  17.9900         35147.000      53.479
  18.0900         34665.000      54.139
  18.1900         34152.000      52.498
  18.2900         34219.000      54.009
  18.3900         34143.000      53.404
  18.4900         34186.000      52.820
  18.5900         34120.000      53.666
  18.6900         34398.000      53.619
  18.7900         34308.000      53.179
  18.8900         34637.000      53.647
  18.9900         34519.000      54.009
  19.0900         34129.000      53.703
  19.1900         34069.000      53.787
  19.2900         34200.000      53.516
  19.3900         34446.000      53.245
  19.4900         34173.000      53.544
  19.5900         34227.000      52.383
  19.6900         34472.000      53.198
  19.7900         34334.000      53.684
  19.8900         34348.000      53.254
  19.9900         34287.000      53.245
  20.0900         34234.000      52.526
  20.1900         34302.000      52.896
  20.2900         34297.000      54.065
  20.3900         34342.000      52.953
  20.4900         34582.000      53.703
  20.5900         34437.000      54.194
  20.6900         34926.000      54.342
  20.7900         34710.000      53.057
  20.8900         34231.000      52.192
  20.9900         34580.000      53.796
  21.0900         34762.000      53.479
  21.1900         34432.000      53.554
  21.2900         34358.000      52.991
  21.3900         34492.000      53.656
  21.4900         34424.000      53.563
  21.5900         34627.000      53.749
  21.6900         34544.000      53.907
  21.7900         34772.000      53.796
  21.8900         34500.000      53.787
  21.9900         34165.000      53.796
  22.0900         34313.000      53.226
  22.1900         34477.000      53.694
  22.2900         34472.000      53.432
  22.3900         34588.000      53.972
  22.4900         34345.000      52.792
  22.5900         34427.000      53.132
  22.6900         34691.000      53.226
  22.7900         34643.000      53.749
  22.8900         34521.000      54.763
  22.9900         34893.000      53.954
  23.0900         34359.000      53.796
  23.1900         34875.000      53.563
  23.2900         34471.000      53.526
  23.3900         34728.000      53.170
  23.4900         34680.000      54.553
  23.5900         34656.000      54.498
  23.6900         34512.000      53.944
  23.7900         34613.000      53.535
  23.8900         34978.000      53.432
  23.9900         35306.000      54.397
  24.0900         35436.000      53.694
  24.1900         34904.000      53.722
  24.2900         34937.000      53.385
  24.3900         34888.000      54.028
  24.4900         34583.000      53.572
  24.5900         34680.000      54.397
  24.6900         34384.000      53.572
  24.7900         34490.000      53.226
  24.8900         35275.000      54.268
  24.9900         34836.000      54.571
  25.0900         35383.000      54.387
  25.1900         35067.000      54.000
  25.2900         35172.000      54.369
  25.3900         35996.000      54.332
  25.4900         35640.000      53.972
  25.5900         35473.000      53.861
  25.6900         35193.000      53.619
  25.7900         35140.000      54.000
  25.8900         35104.000      54.745
  25.9900         35227.000      54.037
  26.0900         35272.000      54.000
  26.1900         35598.000      54.699
  26.2900         34894.000      53.666
  26.3900         35080.000      53.796
  26.4900         35161.000      53.712
  26.5900         35459.000      54.194
  26.6900         35566.000      54.259
  26.7900         35102.000      53.777
  26.8900         35238.000      54.635
  26.9900         35765.000      55.163
  27.0900         35471.000      54.452
  27.1900         35415.000      53.544
  27.2900         35343.000      54.056
  27.3900         35556.000      53.926
  27.4900         35496.000      55.036
  27.5900         35404.000      54.185
  27.6900         35656.000      54.617
  27.7900         35644.000      54.470
  27.8900         35493.000      54.626
  27.9900         35486.000      55.281
  28.0900         35642.000      55.444
  28.1900         35359.000      53.907
  28.2900         35591.000      53.759
  28.3900         35538.000      54.148
  28.4900         35708.000      54.781
  28.5900         35390.000      54.231
  28.6900         35727.000      54.231
  28.7900         35501.000      54.580
  28.8900         35676.000      54.991
  28.9900         35773.000      54.489
  29.0900         35903.000      54.397
  29.1900         35981.000      55.027
  29.2900         35596.000      54.461
  29.3900         35849.000      54.498
  29.4900         35991.000      54.608
  29.5900         36451.000      54.635
  29.6900         36652.000      54.507
  29.7900         36784.000      55.642
  29.8900         37866.000      56.134
  29.9900         37504.000      55.444
  30.0900         37828.000      56.054
  30.1900         36971.000      55.955
  30.2900         37036.000      55.417
  30.3900         37392.000      56.018
  30.4900         37761.000      56.639
  30.5900         38101.000      56.249
  30.6900         38749.000      56.303
  30.7900         40803.000      58.292
  30.8900         44707.000      60.671
  30.9900         55160.000      68.000
  31.0900         76387.000      79.630
  31.1900        105745.000      94.435
  31.2900        128249.000     103.320
  31.3900        126862.000     103.697
  31.4900        102885.000      92.423
  31.5900         72787.000      78.498
  31.6900         52771.000      66.038
  31.7900         43350.000      60.283
  31.8900         40253.000      57.611
  31.9900         38675.000      56.586
  32.0900         38136.000      56.542
  32.1900         37584.000      55.597
  32.2900         37108.000      56.116
  32.3900         36808.000      55.615
  32.4900         36678.000      54.882
  32.5900         36793.000      55.875
  32.6900         36601.000      55.399
  32.7900         36390.000      55.381
  32.8900         36457.000      54.608
  32.9900         36417.000      54.827
  33.0900         36012.000      54.580
  33.1900         36505.000      55.118
  33.2900         36154.000      54.681
  33.3900         36194.000      55.000
  33.4900         36029.000      53.814
  33.5900         36233.000      54.019
  33.6900         36146.000      54.562
  33.7900         36381.000      54.791
  33.8900         36650.000      54.845
  33.9900         36417.000      55.767
  34.0900         36770.000      55.100
  34.1900         37233.000      56.329
  34.2900         36784.000      55.723
  34.3900         36761.000      55.399
  34.4900         36452.000      55.236
  34.5900         36321.000      56.187
  34.6900         36072.000      55.000
  34.7900         36474.000      54.873
  34.8900         36317.000      54.672
  34.9900         36625.000      54.772
  35.0900         36266.000      55.344
  35.1900         36433.000      54.635
  35.2900         36649.000      54.470
  35.3900         36113.000      55.163
  35.4900         36361.000      54.653
  35.5900         37033.000      55.399
  35.6900         37394.000      55.281
  35.7900         38728.000      56.754
  35.8900         40284.000      58.301
  35.9900         45672.000      61.677
  36.0900         54690.000      66.985
  36.1900         68355.000      76.105
  36.2900         81177.000      81.425
  36.3900         84401.000      83.457
  36.4900         75059.000      79.555
  36.5900         61153.000      72.478
  36.6900         49364.000      64.140
  36.7900         42145.000      58.609
  36.8900         39355.000      57.515
  36.9900         37846.000      55.723
  37.0900         36995.000      54.882
  37.1900         37039.000      55.290
  37.2900         36099.000      54.599
  37.3900         36530.000      54.964
  37.4900         35924.000      54.470
  37.5900         36311.000      55.100
  37.6900         35974.000      55.145
  37.7900         35853.000      54.653
  37.8900         36045.000      54.231
  37.9900         36002.000      53.991
  38.0900         35568.000      54.194
  38.1900         35778.000      54.690
  38.2900         35681.000      54.277
  38.3900         35366.000      53.694
  38.4900         35393.000      53.861
  38.5900         35186.000      53.917
  38.6900         35373.000      54.176
  38.7900         35234.000      54.900
  38.8900         35415.000      55.018
  38.9900         34968.000      54.507
  39.0900         35300.000      53.777
  39.1900         35400.000      55.064
  39.2900         35474.000      54.286
  39.3900         35686.000      54.626
  39.4900         35555.000      53.694
  39.5900         35720.000      55.200
  39.6900         36593.000      54.964
  39.7900         36368.000      54.791
  39.8900         36272.000      54.754
  39.9900         35801.000      54.717
  40.0900         35735.000      55.344
  40.1900         35358.000      53.759
  40.2900         35652.000      54.387
  40.3900         35654.000      54.461
  40.4900         35264.000      53.628
  40.5900         35328.000      54.653
  40.6900         35300.000      54.699
  40.7900         35515.000      53.796
  40.8900         35656.000      54.406
  40.9900         35292.000      53.749
  41.0900         35255.000      54.222
  41.1900         34936.000      53.833
  41.2900         35431.000      54.708
  41.3900         34763.000      53.926
  41.4900         35114.000      54.222
  41.5900         34947.000      53.852
  41.6900         35039.000      54.222
  41.7900         34779.000      54.037
  41.8900         35051.000      53.944
  41.9900         35165.000      54.213
  42.0900         35175.000      53.861
  42.1900         35072.000      53.254
  42.2900         34948.000      53.861
  42.3900         35100.000      54.369
  42.4900         35014.000      54.424
  42.5900         34554.000      53.151
  42.6900         34577.000      53.954
  42.7900         34630.000      53.703
  42.8900         35144.000      53.898
  42.9900         34978.000      54.083
  43.0900         34735.000      54.074
  43.1900         35166.000      53.460
  43.2900         34389.000      52.991
  43.3900         34832.000      54.653
  43.4900         35041.000      53.432
  43.5900         35075.000      54.635
  43.6900         35013.000      54.249
  43.7900         34850.000      53.600
  43.8900         34837.000      52.906
  43.9900         35153.000      53.619
  44.0900         35078.000      54.772
  44.1900         34841.000      53.385
  44.2900         34432.000      52.383
  44.3900         34922.000      53.329
  44.4900         35018.000      53.787
  44.5900         34693.000      54.166
  44.6900         34711.000      54.065
  44.7900         34885.000      53.870
  44.8900         35292.000      54.873
  44.9900         34843.000      53.879
  45.0900         34897.000      53.198
  45.1900         34564.000      53.944
  45.2900         34879.000      53.572
  45.3900         34672.000      54.000
  45.4900         34444.000      53.516
  45.5900         34683.000      54.534
  45.6900         34520.000      53.085
  45.7900         34827.000      53.160
  45.8900         35087.000      53.703
  45.9900         34696.000      55.209
  46.0900         34480.000      53.861
  46.1900         34966.000      53.787
  46.2900         34886.000      54.900
  46.3900         35100.000      54.222
  46.4900         34970.000      53.666
  46.5900         35103.000      54.240
  46.6900         34560.000      53.404
  46.7900         34552.000      53.619
  46.8900         34538.000      53.329
  46.9900         34703.000      53.787
  47.0900         34846.000      53.852
  47.1900         34755.000      53.442
  47.2900         34746.000      54.240
  47.3900         34758.000      54.194
  47.4900         35031.000      54.653
  47.5900         35461.000      54.397
  47.6900         37178.000      55.964
  47.7900         38494.000      57.758
  47.8900         38576.000      56.036
  47.9900         37679.000      55.669
  48.0900         36005.000      54.507
  48.1900         34892.000      54.406
  48.2900         34868.000      53.301
  48.3900         34852.000      52.697
  48.4900         34841.000      53.591
  48.5900         34830.000      53.245
