XYDATA SparksLave Co3O4-quenched_700_300K 
INTER        1       1       0     0.100000
TEMP       298.788      299.998      300.000
! d1b Date 15-Nov-11 Time 02:20:23 Run 130009 129998>130009
! d1b Date 15-Nov-11 Time 02:20:23 Run 130009 129998>130009
! Monitor/counts, Counting time/sec:  1.09670e+007 1.09670e+007
   0.7900             5.000       1.000
   0.8900             3.000       1.000
   0.9900          1951.000      13.454
   1.0900          2009.000      11.916
   1.1900          1871.000      11.874
   1.2900          1838.000      12.961
   1.3900          1911.000      12.450
   1.4900          1861.000      12.884
   1.5900          1988.000      13.115
   1.6900          2074.000      12.923
   1.7900          2536.000      13.892
   1.8900          3971.000      19.313
   1.9900          6695.000      23.367
   2.0900          8913.000      28.125
   2.1900         11106.000      30.430
   2.2900         14135.000      34.843
   2.3900         17928.000      39.395
   2.4900         21604.000      42.332
   2.5900         25611.000      46.583
   2.6900         28996.000      48.724
   2.7900         32487.000      52.868
   2.8900         35053.000      53.684
   2.9900         37900.000      55.561
   3.0900         40795.000      58.146
   3.1900         43377.000      58.643
   3.2900         45884.000      61.555
   3.3900         46002.000      61.620
   3.4900         44967.000      61.871
   3.5900         44917.000      61.237
   3.6900         44529.000      60.951
   3.7900         43988.000      59.983
   3.8900         42522.000      59.808
   3.9900         43750.000      60.432
   4.0900         43540.000      60.440
   4.1900         43465.000      59.942
   4.2900         43325.000      59.933
   4.3900         43973.000      60.951
   4.4900         44289.000      60.836
   4.5900         45440.000      61.425
   4.6900         47413.000      62.968
   4.7900         48957.000      63.253
   4.8900         50683.000      65.284
   4.9900         52284.000      65.818
   5.0900         54878.000      67.402
   5.1900         56242.000      67.720
   5.2900         57896.000      68.927
   5.3900         59966.000      70.512
   5.4900         61568.000      72.250
   5.5900         63937.000      72.519
   5.6900         65231.000      73.722
   5.7900         66610.000      74.243
   5.8900         68485.000      75.822
   5.9900         69817.000      76.007
   6.0900         71011.000      76.609
   6.1900         72055.000      77.666
   6.2900         71367.000      76.740
   6.3900         71591.000      77.692
   6.4900         71917.000      78.000
   6.5900         71043.000      76.498
   6.6900         70755.000      77.136
   6.7900         70143.000      76.079
   6.8900         69872.000      76.857
   6.9900         69593.000      75.750
   7.0900         68489.000      76.007
   7.1900         68018.000      75.881
   7.2900         67267.000      75.472
   7.3900         66854.000      74.398
   7.4900         66126.000      74.081
   7.5900         65470.000      73.926
   7.6900         64084.000      72.815
   7.7900         63752.000      73.151
   7.8900         62624.000      72.849
   7.9900         61599.000      71.979
   8.0900         61170.000      71.183
   8.1900         60143.000      70.958
   8.2900         59366.000      70.711
   8.3900         58091.000      69.541
   8.4900         57405.000      69.405
   8.5900         56443.000      67.631
   8.6900         56170.000      67.646
   8.7900         55229.000      68.250
   8.8900         54298.000      66.761
   8.9900         53384.000      67.157
   9.0900         52503.000      65.284
   9.1900         51435.000      65.856
   9.2900         51042.000      65.169
   9.3900         49907.000      64.730
   9.4900         48904.000      63.545
   9.5900         48801.000      63.867
   9.6900         47634.000      63.340
   9.7900         47213.000      62.706
   9.8900         45884.000      61.685
   9.9900         45158.000      60.125
  10.0900         44155.000      60.324
  10.1900         43491.000      59.733
  10.2900         42697.000      60.100
  10.3900         41491.000      58.762
  10.4900         41467.000      58.378
  10.5900         40841.000      58.121
  10.6900         40187.000      58.737
  10.7900         39635.000      57.228
  10.8900         38742.000      57.236
  10.9900         39138.000      57.836
  11.0900         38942.000      56.524
  11.1900         38676.000      55.552
  11.2900         38200.000      55.615
  11.3900         38379.000      56.054
  11.4900         38342.000      56.321
  11.5900         38012.000      56.956
  11.6900         38147.000      57.140
  11.7900         38144.000      56.205
  11.8900         38301.000      56.666
  11.9900         37812.000      55.227
  12.0900         38135.000      56.498
  12.1900         37730.000      56.719
  12.2900         37935.000      55.758
  12.3900         37909.000      57.550
  12.4900         38196.000      56.921
  12.5900         38093.000      55.723
  12.6900         37808.000      56.551
  12.7900         37674.000      55.615
  12.8900         37702.000      55.982
  12.9900         37741.000      56.178
  13.0900         37441.000      55.036
  13.1900         37622.000      56.223
  13.2900         37504.000      55.857
  13.3900         37664.000      56.107
  13.4900         37472.000      54.973
  13.5900         37584.000      56.356
  13.6900         37999.000      57.053
  13.7900         37451.000      55.740
  13.8900         37659.000      56.613
  13.9900         37783.000      56.454
  14.0900         37289.000      55.946
  14.1900         37568.000      57.131
  14.2900         37542.000      56.489
  14.3900         37558.000      56.249
  14.4900         38197.000      56.939
  14.5900         37758.000      55.651
  14.6900         37256.000      55.606
  14.7900         37623.000      55.911
  14.8900         37559.000      54.955
  14.9900         38052.000      56.895
  15.0900         37387.000      54.845
  15.1900         37800.000      56.276
  15.2900         38509.000      55.525
  15.3900         38972.000      56.692
  15.4900         38703.000      56.524
  15.5900         38125.000      56.374
  15.6900         37910.000      55.362
  15.7900         37352.000      57.000
  15.8900         37444.000      55.009
  15.9900         37882.000      56.851
  16.0900         37769.000      56.276
  16.1900         37527.000      55.145
  16.2900         37580.000      56.877
  16.3900         37922.000      55.453
  16.4900         37486.000      56.232
  16.5900         37251.000      55.371
  16.6900         37191.000      54.781
  16.7900         37923.000      56.710
  16.8900         37349.000      55.812
  16.9900         37405.000      56.454
  17.0900         37303.000      56.338
  17.1900         37735.000      56.560
  17.2900         37847.000      56.276
  17.3900         37355.000      55.381
  17.4900         37550.000      56.648
  17.5900         37686.000      54.599
  17.6900         37728.000      55.082
  17.7900         37689.000      56.383
  17.8900         37382.000      55.758
  17.9900         37596.000      57.245
  18.0900         37779.000      56.045
  18.1900         37600.000      56.027
  18.2900         37388.000      56.178
  18.3900         37421.000      56.071
  18.4900         38102.000      56.080
  18.5900         37929.000      56.498
  18.6900         37982.000      56.062
  18.7900         37512.000      55.588
  18.8900         37673.000      56.276
  18.9900         37814.000      56.639
  19.0900         37336.000      56.178
  19.1900         37719.000      56.736
  19.2900         37663.000      55.489
  19.3900         37639.000      56.454
  19.4900         37492.000      55.127
  19.5900         37427.000      55.740
  19.6900         37523.000      56.400
  19.7900         37747.000      56.045
  19.8900         37918.000      56.542
  19.9900         37716.000      55.272
  20.0900         36909.000      55.507
  20.1900         37680.000      56.196
  20.2900         38267.000      55.955
  20.3900         37295.000      56.462
  20.4900         37557.000      56.303
  20.5900         37950.000      55.937
  20.6900         38353.000      56.930
  20.7900         37546.000      55.991
  20.8900         37922.000      55.326
  20.9900         37565.000      55.435
  21.0900         37670.000      55.893
  21.1900         37458.000      56.312
  21.2900         37532.000      55.830
  21.3900         37702.000      56.045
  21.4900         37476.000      56.018
  21.5900         37839.000      56.338
  21.6900         37644.000      55.920
  21.7900         37226.000      55.543
  21.8900         37621.000      55.893
  21.9900         37769.000      56.630
  22.0900         37689.000      56.763
  22.1900         37467.000      54.891
  22.2900         37511.000      56.241
  22.3900         37499.000      56.947
  22.4900         37340.000      55.561
  22.5900         37346.000      55.534
  22.6900         37594.000      56.241
  22.7900         37677.000      56.276
  22.8900         37735.000      56.187
  22.9900         37604.000      56.080
  23.0900         37580.000      55.946
  23.1900         37722.000      56.683
  23.2900         37789.000      56.071
  23.3900         37321.000      54.945
  23.4900         37328.000      55.893
  23.5900         37832.000      56.089
  23.6900         37577.000      55.955
  23.7900         37896.000      56.498
  23.8900         37843.000      57.393
  23.9900         38299.000      56.445
  24.0900         37548.000      56.045
  24.1900         37930.000      55.848
  24.2900         37635.000      56.409
  24.3900         37574.000      56.418
  24.4900         37509.000      56.560
  24.5900         37903.000      55.669
  24.6900         38128.000      55.570
  24.7900         37716.000      56.294
  24.8900         37712.000      56.098
  24.9900         37519.000      55.435
  25.0900         37586.000      56.196
  25.1900         37707.000      56.648
  25.2900         37802.000      55.767
  25.3900         38505.000      57.026
  25.4900         38396.000      56.071
  25.5900         37964.000      56.586
  25.6900         38013.000      56.692
  25.7900         38104.000      56.418
  25.8900         37761.000      55.660
  25.9900         37854.000      56.143
  26.0900         37653.000      56.116
  26.1900         38185.000      57.000
  26.2900         37762.000      56.027
  26.3900         37355.000      56.338
  26.4900         37907.000      56.639
  26.5900         37489.000      56.187
  26.6900         37955.000      56.480
  26.7900         37733.000      56.683
  26.8900         37658.000      55.263
  26.9900         37698.000      57.210
  27.0900         38023.000      56.160
  27.1900         37411.000      55.758
  27.2900         37811.000      55.785
  27.3900         37739.000      56.727
  27.4900         37937.000      55.740
  27.5900         37613.000      56.062
  27.6900         37503.000      55.749
  27.7900         37888.000      56.454
  27.8900         37942.000      56.294
  27.9900         37783.000      56.249
  28.0900         37839.000      55.353
  28.1900         37519.000      56.515
  28.2900         38339.000      56.965
  28.3900         37851.000      56.418
  28.4900         37913.000      56.982
  28.5900         37912.000      55.308
  28.6900         37940.000      56.071
  28.7900         37817.000      56.498
  28.8900         37986.000      56.089
  28.9900         38104.000      56.018
  29.0900         38281.000      56.507
  29.1900         38014.000      56.249
  29.2900         37532.000      55.145
  29.3900         37588.000      55.543
  29.4900         38163.000      57.489
  29.5900         37933.000      55.749
  29.6900         37988.000      56.089
  29.7900         38712.000      56.232
  29.8900         38975.000      56.982
  29.9900         38796.000      56.877
  30.0900         38855.000      56.365
  30.1900         38274.000      56.249
  30.2900         38451.000      56.639
  30.3900         38634.000      56.134
  30.4900         39002.000      56.569
  30.5900         38684.000      56.107
  30.6900         39222.000      56.560
  30.7900         39919.000      57.131
  30.8900         42190.000      59.540
  30.9900         47722.000      63.119
  31.0900         61721.000      71.764
  31.1900         78456.000      80.852
  31.2900         89292.000      86.608
  31.3900         84271.000      84.178
  31.4900         67774.000      74.760
  31.5900         51772.000      65.681
  31.6900         43546.000      59.983
  31.7900         40012.000      57.957
  31.8900         38979.000      56.771
  31.9900         38765.000      56.267
  32.0900         38630.000      55.946
  32.1900         38443.000      56.639
  32.2900         38154.000      55.857
  32.3900         38279.000      56.160
  32.4900         38118.000      56.107
  32.5900         38148.000      55.417
  32.6900         38288.000      56.018
  32.7900         38143.000      56.868
  32.8900         38157.000      55.991
  32.9900         37934.000      56.098
  33.0900         37943.000      56.205
  33.1900         37929.000      56.498
  33.2900         37821.000      56.080
  33.3900         37623.000      56.965
  33.4900         37696.000      55.964
  33.5900         37630.000      55.516
  33.6900         37926.000      55.731
  33.7900         38026.000      56.232
  33.8900         37656.000      55.812
  33.9900         38421.000      55.821
  34.0900         38150.000      56.912
  34.1900         38268.000      57.114
  34.2900         38370.000      56.329
  34.3900         38187.000      55.552
  34.4900         38328.000      57.393
  34.5900         37906.000      55.290
  34.6900         37676.000      55.803
  34.7900         37938.000      55.417
  34.8900         37768.000      55.937
  34.9900         37949.000      54.982
  35.0900         37976.000      57.158
  35.1900         37431.000      56.125
  35.2900         37843.000      56.009
  35.3900         37795.000      56.062
  35.4900         37788.000      55.785
  35.5900         37719.000      56.071
  35.6900         37720.000      55.893
  35.7900         37639.000      55.308
  35.8900         37842.000      56.391
  35.9900         38092.000      56.639
  36.0900         39763.000      56.930
  36.1900         42659.000      58.898
  36.2900         45766.000      60.721
  36.3900         45360.000      61.806
  36.4900         41942.000      58.489
  36.5900         39304.000      57.550
  36.6900         37931.000      55.902
  36.7900         38236.000      56.116
  36.8900         37717.000      56.196
  36.9900         37183.000      55.127
  37.0900         37640.000      56.232
  37.1900         37612.000      56.054
  37.2900         37497.000      54.909
  37.3900         37452.000      56.480
  37.4900         37899.000      56.947
  37.5900         37623.000      55.866
  37.6900         37286.000      55.489
  37.7900         37549.000      55.254
  37.8900         37210.000      57.079
  37.9900         37540.000      56.241
  38.0900         37533.000      54.736
  38.1900         37562.000      56.409
  38.2900         37222.000      55.399
  38.3900         37046.000      56.009
  38.4900         37632.000      55.785
  38.5900         36749.000      55.812
  38.6900         37308.000      55.669
  38.7900         37515.000      56.143
  38.8900         37232.000      55.254
  38.9900         37141.000      55.390
  39.0900         37324.000      55.714
  39.1900         37357.000      55.803
  39.2900         37425.000      56.116
  39.3900         37337.000      56.560
  39.4900         37166.000      55.245
  39.5900         37585.000      56.551
  39.6900         37908.000      56.205
  39.7900         37569.000      56.027
  39.8900         37879.000      56.807
  39.9900         37378.000      55.498
  40.0900         37258.000      55.272
  40.1900         37446.000      55.714
  40.2900         37304.000      56.196
  40.3900         37368.000      56.577
  40.4900         37264.000      55.606
  40.5900         37124.000      55.381
  40.6900         36907.000      55.794
  40.7900         36873.000      56.489
  40.8900         36990.000      55.353
  40.9900         37304.000      55.552
  41.0900         36847.000      55.740
  41.1900         37159.000      55.651
  41.2900         37054.000      56.062
  41.3900         37124.000      54.973
  41.4900         37336.000      56.418
  41.5900         36881.000      56.089
  41.6900         37685.000      55.435
  41.7900         36922.000      55.624
  41.8900         37005.000      55.911
  41.9900         37016.000      55.064
  42.0900         37385.000      56.134
  42.1900         36976.000      55.055
  42.2900         37079.000      55.866
  42.3900         37129.000      56.356
  42.4900         37029.000      56.267
  42.5900         36972.000      54.991
  42.6900         37033.000      55.281
  42.7900         37077.000      55.109
  42.8900         37188.000      55.073
  42.9900         37225.000      55.875
  43.0900         36855.000      55.082
  43.1900         36539.000      55.471
  43.2900         36722.000      55.435
  43.3900         36980.000      55.767
  43.4900         36945.000      55.127
  43.5900         36679.000      55.489
  43.6900         36978.000      55.937
  43.7900         37007.000      55.435
  43.8900         37343.000      55.902
  43.9900         36845.000      54.991
  44.0900         36787.000      55.642
  44.1900         36828.000      55.390
  44.2900         37076.000      55.426
  44.3900         36483.000      54.982
  44.4900         37157.000      56.125
  44.5900         37220.000      56.391
  44.6900         36874.000      55.362
  44.7900         37022.000      55.875
  44.8900         37104.000      56.089
  44.9900         36735.000      55.390
  45.0900         37119.000      55.172
  45.1900         36952.000      55.200
  45.2900         36805.000      56.107
  45.3900         37148.000      56.789
  45.4900         37010.000      55.857
  45.5900         36872.000      55.588
  45.6900         36664.000      54.717
  45.7900         36835.000      55.154
  45.8900         36800.000      55.362
  45.9900         36539.000      56.780
  46.0900         36692.000      55.227
  46.1900         36827.000      54.781
  46.2900         36625.000      55.263
  46.3900         36764.000      54.699
  46.4900         36838.000      54.891
  46.5900         37076.000      55.893
  46.6900         36799.000      55.272
  46.7900         37160.000      56.098
  46.8900         36507.000      54.295
  46.9900         36661.000      55.326
  47.0900         37034.000      56.418
  47.1900         37312.000      56.000
  47.2900         37071.000      55.136
  47.3900         37030.000      56.169
  47.4900         37314.000      55.579
  47.5900         37962.000      56.648
  47.6900         39726.000      57.637
  47.7900         40570.000      58.155
  47.8900         40140.000      57.402
  47.9900         39365.000      57.402
  48.0900         38012.000      55.749
  48.1900         37033.000      55.758
  48.2900         36965.000      55.991
  48.3900         36973.000      56.187
  48.4900         37010.000      56.859
  48.5900         37054.000      54.781
